   224
    320.0   0.28135   0.04186
    330.0   0.29412   0.02829
    340.0   0.30589   0.02248
    350.0   0.31168   0.01920
    360.0   0.31688   0.01731
    370.0   0.32047   0.01615
    380.0   0.32203   0.01634
    390.0   0.32249   0.01611
    400.0   0.32081   0.01530
    410.0   0.31966   0.01485
    420.0   0.31874   0.01501
    430.0   0.31885   0.01488
    440.0   0.31870   0.01480
    450.0   0.31922   0.01489
    460.0   0.31929   0.01485
    470.0   0.31918   0.01484
    480.0   0.31898   0.01467
    490.0   0.31904   0.01473
    500.0   0.31865   0.01474
    510.0   0.31898   0.01477
    520.0   0.31844   0.01456
    530.0   0.31858   0.01470
    540.0   0.31834   0.01465
    550.0   0.31826   0.01451
    560.0   0.31778   0.01437
    570.0   0.31696   0.01442
    580.0   0.31651   0.01430
    590.0   0.31552   0.01401
    600.0   0.31458   0.01401
    610.0   0.31379   0.01416
    620.0   0.31297   0.01401
    630.0   0.31232   0.01377
    640.0   0.31127   0.01378
    650.0   0.31023   0.01364
    660.0   0.30907   0.01360
    670.0   0.30794   0.01331
    680.0   0.30663   0.01351
    690.0   0.30601   0.01350
    700.0   0.30436   0.01317
    710.0   0.30305   0.01319
    720.0   0.30229   0.01324
    730.0   0.30098   0.01303
    740.0   0.30036   0.01286
    750.0   0.29908   0.01303
    760.0   0.29855   0.01289
    770.0   0.29753   0.01295
    780.0   0.29681   0.01274
    790.0   0.29591   0.01294
    800.0   0.29474   0.01282
    810.0   0.29410   0.01268
    820.0   0.29263   0.01255
    830.0   0.29246   0.01319
    840.0   0.29070   0.01210
    850.0   0.29027   0.01241
    860.0   0.29022   0.01077
    870.0   0.28880   0.01106
    880.0   0.28756   0.01027
    890.0   0.28796   0.01007
    900.0   0.28669   0.01010
    910.0   0.28584   0.00979
    920.0   0.28544   0.00979
    930.0   0.28493   0.00989
    940.0   0.28442   0.00920
    950.0   0.28429   0.00888
    960.0   0.28420   0.00935
    970.0   0.28233   0.00962
    980.0   0.28211   0.00960
    990.0   0.28245   0.00903
   1000.0   0.28125   0.00897
   1010.0   0.28045   0.00876
   1020.0   0.28000   0.00940
   1030.0   0.27910   0.00937
   1040.0   0.27941   0.00897
   1050.0   0.27822   0.00860
   1060.0   0.27697   0.00923
   1070.0   0.27697   0.00934
   1080.0   0.27620   0.00937
   1090.0   0.27535   0.00886
   1100.0   0.27477   0.00905
   1110.0   0.27480   0.00920
   1120.0   0.27325   0.00946
   1130.0   0.27221   0.00905
   1140.0   0.27227   0.00941
   1150.0   0.27117   0.00856
   1160.0   0.27104   0.00938
   1170.0   0.27006   0.00844
   1180.0   0.26943   0.00825
   1190.0   0.26946   0.00849
   1200.0   0.26837   0.00885
   1210.0   0.26850   0.00811
   1220.0   0.26670   0.00858
   1230.0   0.26700   0.00836
   1240.0   0.26603   0.00865
   1250.0   0.26569   0.00872
   1260.0   0.26473   0.00866
   1270.0   0.26369   0.00851
   1280.0   0.26220   0.00849
   1290.0   0.26182   0.00832
   1300.0   0.26095   0.00842
   1310.0   0.26062   0.00809
   1320.0   0.25982   0.00819
   1330.0   0.25898   0.00832
   1340.0   0.25863   0.00788
   1350.0   0.25767   0.00817
   1360.0   0.25699   0.00786
   1370.0   0.25583   0.00774
   1380.0   0.25547   0.00754
   1390.0   0.25400   0.00801
   1400.0   0.25318   0.00775
   1410.0   0.25227   0.00817
   1420.0   0.25187   0.00826
   1430.0   0.25175   0.00801
   1440.0   0.25110   0.00798
   1450.0   0.25052   0.00795
   1460.0   0.25013   0.00780
   1470.0   0.24956   0.00806
   1480.0   0.24957   0.00774
   1490.0   0.24929   0.00778
   1500.0   0.24864   0.00762
   1510.0   0.24820   0.00799
   1520.0   0.24762   0.00777
   1530.0   0.24790   0.00782
   1540.0   0.24725   0.00794
   1550.0   0.24676   0.00786
   1560.0   0.24609   0.00729
   1570.0   0.24514   0.00718
   1580.0   0.24495   0.00762
   1590.0   0.24461   0.00770
   1600.0   0.24446   0.00797
   1610.0   0.24389   0.00755
   1620.0   0.24362   0.00710
   1630.0   0.24306   0.00782
   1640.0   0.24241   0.00768
   1650.0   0.24128   0.00715
   1660.0   0.24144   0.00774
   1670.0   0.24101   0.00740
   1680.0   0.24016   0.00706
   1690.0   0.23970   0.00737
   1700.0   0.24008   0.00675
   1710.0   0.23916   0.00661
   1720.0   0.23891   0.00685
   1730.0   0.23849   0.00682
   1740.0   0.23804   0.00671
   1750.0   0.23739   0.00673
   1760.0   0.23711   0.00610
   1770.0   0.23593   0.00580
   1780.0   0.23601   0.00596
   1790.0   0.23529   0.00609
   1800.0   0.23481   0.00583
   1810.0   0.23407   0.00584
   1820.0   0.23366   0.00612
   1830.0   0.23278   0.00599
   1840.0   0.23191   0.00573
   1850.0   0.23190   0.00577
   1860.0   0.23142   0.00610
   1870.0   0.23043   0.00577
   1880.0   0.22930   0.00544
   1890.0   0.22845   0.00569
   1900.0   0.22576   0.00556
   1910.0   0.22271   0.00534
   1920.0   0.22198   0.00571
   1930.0   0.22114   0.00532
   1940.0   0.22181   0.00501
   1950.0   0.22224   0.00586
   1960.0   0.22182   0.00574
   1970.0   0.22177   0.00512
   1980.0   0.22158   0.00561
   1990.0   0.22190   0.00511
   2000.0   0.22222   0.00558
   2010.0   0.22222   0.00537
   2020.0   0.22262   0.00552
   2030.0   0.22194   0.00568
   2040.0   0.22210   0.00531
   2050.0   0.22139   0.00531
   2060.0   0.22116   0.00554
   2070.0   0.22087   0.00554
   2080.0   0.22079   0.00554
   2090.0   0.22055   0.00562
   2100.0   0.21997   0.00547
   2110.0   0.21978   0.00556
   2120.0   0.21992   0.00576
   2130.0   0.21920   0.00558
   2140.0   0.21861   0.00594
   2150.0   0.21902   0.00576
   2160.0   0.21848   0.00516
   2170.0   0.21835   0.00541
   2180.0   0.21686   0.00511
   2190.0   0.21716   0.00510
   2200.0   0.21610   0.00522
   2210.0   0.21619   0.00489
   2220.0   0.21561   0.00541
   2230.0   0.21498   0.00501
   2240.0   0.21378   0.00541
   2250.0   0.21363   0.00497
   2260.0   0.21427   0.00551
   2270.0   0.21291   0.00490
   2280.0   0.21225   0.00532
   2290.0   0.21171   0.00542
   2300.0   0.21123   0.00502
   2310.0   0.20967   0.00478
   2320.0   0.20994   0.00507
   2330.0   0.21016   0.00537
   2340.0   0.20994   0.00550
   2350.0   0.20930   0.00513
   2360.0   0.20854   0.00502
   2370.0   0.20791   0.00526
   2380.0   0.20649   0.00512
   2390.0   0.20592   0.00564
   2400.0   0.20513   0.00515
   2410.0   0.20493   0.00530
   2420.0   0.20521   0.00493
   2430.0   0.20426   0.00530
   2440.0   0.20294   0.00543
   2450.0   0.20216   0.00516
   2460.0   0.20099   0.00518
   2470.0   0.20031   0.00507
   2480.0   0.19994   0.00483
   2490.0   0.19852   0.00510
   2500.0   0.19784   0.00479
   2510.0   0.19662   0.00495
   2520.0   0.19607   0.00480
   2530.0   0.19618   0.00523
   2540.0   0.19523   0.00526
   2550.0   0.19385   0.00522



 C1AR02              .ASC                        

 AR-ASR-002                                                              
 ALHA78113,74 aubrite                                                    
 Chip (light & dark face)                                                
 * User: ASR                                                             
 * Research Type: PGG,                                                   
 * NASA PI/CoI or Sponsor: ASR                                           
 * BVC: Visitor                                                          
 * Public Release Date: 11/28/2009                                       
 * Run Mode: All Wavelengths for Each Sample                             
 * Stage Type: Automatic                                                 
 * Spinning: Yes                                                         
 * Aperture Size: 7.0 mm                                                 
 * Scrambler: In                                                         
 * Depolarizer: Out                                                      
 RATIOS ADJUSTED USING NBS HALON CALIBRATION TABLE                       

 Source Ang: 30.00   Detect Ang:  0.00  Volt: 0.777
 Date: 29-NOV-06   Time: 10:37:42
