   224
    320.0   0.32916   0.05006
    330.0   0.33734   0.03213
    340.0   0.34687   0.02227
    350.0   0.35247   0.01542
    360.0   0.35714   0.01067
    370.0   0.35983   0.00809
    380.0   0.36129   0.00688
    390.0   0.36245   0.00682
    400.0   0.36421   0.00449
    410.0   0.36471   0.00382
    420.0   0.36503   0.00354
    430.0   0.36630   0.00354
    440.0   0.36826   0.00346
    450.0   0.37034   0.00359
    460.0   0.37234   0.00354
    470.0   0.37419   0.00358
    480.0   0.37589   0.00361
    490.0   0.37729   0.00369
    500.0   0.37880   0.00373
    510.0   0.38024   0.00373
    520.0   0.38197   0.00373
    530.0   0.38374   0.00365
    540.0   0.38488   0.00369
    550.0   0.38614   0.00389
    560.0   0.38689   0.00368
    570.0   0.38767   0.00380
    580.0   0.38835   0.00389
    590.0   0.38863   0.00380
    600.0   0.38842   0.00388
    610.0   0.38840   0.00370
    620.0   0.38798   0.00392
    630.0   0.38791   0.00353
    640.0   0.38762   0.00379
    650.0   0.38732   0.00372
    660.0   0.38702   0.00392
    670.0   0.38656   0.00384
    680.0   0.38615   0.00380
    690.0   0.38563   0.00383
    700.0   0.38453   0.00389
    710.0   0.38398   0.00395
    720.0   0.38323   0.00381
    730.0   0.38218   0.00390
    740.0   0.38179   0.00382
    750.0   0.38135   0.00381
    760.0   0.38081   0.00373
    770.0   0.38059   0.00396
    780.0   0.38001   0.00394
    790.0   0.37926   0.00402
    800.0   0.37893   0.00526
    810.0   0.37839   0.00540
    820.0   0.37691   0.00541
    830.0   0.37746   0.00533
    840.0   0.37685   0.00505
    850.0   0.37613   0.00477
    860.0   0.37504   0.00514
    870.0   0.37634   0.00472
    880.0   0.37468   0.00460
    890.0   0.37460   0.00395
    900.0   0.37357   0.00321
    910.0   0.37343   0.00351
    920.0   0.37346   0.00306
    930.0   0.37351   0.00359
    940.0   0.37370   0.00309
    950.0   0.37288   0.00363
    960.0   0.37388   0.00362
    970.0   0.37300   0.00353
    980.0   0.37326   0.00307
    990.0   0.37316   0.00324
   1000.0   0.37313   0.00287
   1010.0   0.37238   0.00282
   1020.0   0.37251   0.00290
   1030.0   0.37195   0.00312
   1040.0   0.37189   0.00320
   1050.0   0.37152   0.00328
   1060.0   0.37097   0.00337
   1070.0   0.37028   0.00321
   1080.0   0.37041   0.00280
   1090.0   0.36978   0.00285
   1100.0   0.36902   0.00310
   1110.0   0.36865   0.00315
   1120.0   0.36890   0.00297
   1130.0   0.36894   0.00298
   1140.0   0.36846   0.00319
   1150.0   0.36779   0.00285
   1160.0   0.36712   0.00283
   1170.0   0.36704   0.00329
   1180.0   0.36657   0.00285
   1190.0   0.36613   0.00291
   1200.0   0.36573   0.00298
   1210.0   0.36597   0.00290
   1220.0   0.36556   0.00318
   1230.0   0.36472   0.00284
   1240.0   0.36411   0.00286
   1250.0   0.36397   0.00273
   1260.0   0.36339   0.00280
   1270.0   0.36357   0.00272
   1280.0   0.36240   0.00269
   1290.0   0.36197   0.00284
   1300.0   0.36192   0.00254
   1310.0   0.36196   0.00253
   1320.0   0.36149   0.00288
   1330.0   0.36138   0.00293
   1340.0   0.36057   0.00310
   1350.0   0.36034   0.00264
   1360.0   0.35996   0.00266
   1370.0   0.35929   0.00273
   1380.0   0.35876   0.00284
   1390.0   0.35778   0.00286
   1400.0   0.35754   0.00265
   1410.0   0.35717   0.00275
   1420.0   0.35612   0.00271
   1430.0   0.35574   0.00287
   1440.0   0.35545   0.00274
   1450.0   0.35525   0.00271
   1460.0   0.35505   0.00290
   1470.0   0.35443   0.00274
   1480.0   0.35450   0.00289
   1490.0   0.35424   0.00280
   1500.0   0.35352   0.00273
   1510.0   0.35323   0.00288
   1520.0   0.35329   0.00259
   1530.0   0.35326   0.00267
   1540.0   0.35303   0.00266
   1550.0   0.35306   0.00276
   1560.0   0.35312   0.00274
   1570.0   0.35240   0.00257
   1580.0   0.35201   0.00272
   1590.0   0.35175   0.00254
   1600.0   0.35173   0.00254
   1610.0   0.35120   0.00282
   1620.0   0.35124   0.00270
   1630.0   0.35061   0.00275
   1640.0   0.35024   0.00276
   1650.0   0.35007   0.00249
   1660.0   0.34939   0.00265
   1670.0   0.35038   0.00303
   1680.0   0.34932   0.00293
   1690.0   0.34920   0.00293
   1700.0   0.34890   0.00295
   1710.0   0.34887   0.00281
   1720.0   0.34828   0.00287
   1730.0   0.34803   0.00311
   1740.0   0.34763   0.00315
   1750.0   0.34749   0.00291
   1760.0   0.34729   0.00317
   1770.0   0.34693   0.00336
   1780.0   0.34665   0.00314
   1790.0   0.34691   0.00296
   1800.0   0.34587   0.00297
   1810.0   0.34581   0.00328
   1820.0   0.34508   0.00299
   1830.0   0.34489   0.00327
   1840.0   0.34354   0.00332
   1850.0   0.34513   0.00358
   1860.0   0.34405   0.00291
   1870.0   0.34311   0.00345
   1880.0   0.34238   0.00320
   1890.0   0.34036   0.00314
   1900.0   0.33812   0.00361
   1910.0   0.33572   0.00322
   1920.0   0.33466   0.00337
   1930.0   0.33473   0.00340
   1940.0   0.33490   0.00300
   1950.0   0.33528   0.00344
   1960.0   0.33570   0.00316
   1970.0   0.33567   0.00320
   1980.0   0.33652   0.00324
   1990.0   0.33706   0.00323
   2000.0   0.33681   0.00320
   2010.0   0.33501   0.00294
   2020.0   0.33540   0.00289
   2030.0   0.33536   0.00309
   2040.0   0.33550   0.00325
   2050.0   0.33547   0.00333
   2060.0   0.33517   0.00311
   2070.0   0.33614   0.00308
   2080.0   0.33506   0.00314
   2090.0   0.33536   0.00312
   2100.0   0.33541   0.00301
   2110.0   0.33543   0.00300
   2120.0   0.33505   0.00344
   2130.0   0.33533   0.00315
   2140.0   0.33438   0.00338
   2150.0   0.33480   0.00317
   2160.0   0.33421   0.00295
   2170.0   0.33357   0.00294
   2180.0   0.33230   0.00311
   2190.0   0.33270   0.00335
   2200.0   0.33191   0.00316
   2210.0   0.33183   0.00340
   2220.0   0.33137   0.00355
   2230.0   0.33113   0.00315
   2240.0   0.33037   0.00332
   2250.0   0.33028   0.00313
   2260.0   0.33007   0.00352
   2270.0   0.32971   0.00279
   2280.0   0.32845   0.00309
   2290.0   0.32858   0.00326
   2300.0   0.32840   0.00310
   2310.0   0.32666   0.00308
   2320.0   0.32590   0.00343
   2330.0   0.32716   0.00330
   2340.0   0.32715   0.00383
   2350.0   0.32653   0.00378
   2360.0   0.32608   0.00349
   2370.0   0.32570   0.00356
   2380.0   0.32405   0.00339
   2390.0   0.32358   0.00345
   2400.0   0.32439   0.00345
   2410.0   0.32389   0.00332
   2420.0   0.32363   0.00341
   2430.0   0.32280   0.00347
   2440.0   0.32106   0.00366
   2450.0   0.32068   0.00361
   2460.0   0.31865   0.00383
   2470.0   0.31820   0.00332
   2480.0   0.31921   0.00315
   2490.0   0.31825   0.00310
   2500.0   0.31675   0.00311
   2510.0   0.31618   0.00328
   2520.0   0.31578   0.00297
   2530.0   0.31452   0.00322
   2540.0   0.31482   0.00375
   2550.0   0.31425   0.00410



 C1AR01A             .ASC                        

 AR-ASR-001-A                                                            
 ALHA78113,72                                                            
 125-500 um                                                              
 * User: ASR                                                             
 * Research Type: PGG,                                                   
 * NASA PI/CoI or Sponsor: ASR                                           
 * BVC: Visitor                                                          
 * Public Release Date: 12/19/2009                                       
 * Run Mode: All Wavelengths for Each Sample                             
 * Stage Type: Automatic                                                 
 * Spinning: Yes                                                         
 * Aperture Size: 7.0 mm                                                 
 * Scrambler: In                                                         
 * Depolarizer: Out                                                      
 RATIOS ADJUSTED USING NBS HALON CALIBRATION TABLE                       

 Source Ang: 30.00   Detect Ang:  0.00  Volt: 0.777
 Date: 20-DEC-06   Time: 14:48:20
