   224
    320.0   0.04370   0.00060
    330.0   0.04758   0.00059
    340.0   0.05102   0.00065
    350.0   0.05462   0.00054
    360.0   0.05830   0.00048
    370.0   0.06159   0.00050
    380.0   0.06421   0.00052
    390.0   0.06675   0.00062
    400.0   0.06902   0.00078
    410.0   0.07089   0.00073
    420.0   0.07255   0.00080
    430.0   0.07421   0.00065
    440.0   0.07557   0.00062
    450.0   0.07644   0.00061
    460.0   0.07722   0.00072
    470.0   0.07806   0.00068
    480.0   0.07898   0.00063
    490.0   0.07966   0.00065
    500.0   0.08047   0.00065
    510.0   0.08132   0.00061
    520.0   0.08193   0.00062
    530.0   0.08265   0.00060
    540.0   0.08312   0.00057
    550.0   0.08357   0.00062
    560.0   0.08374   0.00059
    570.0   0.08408   0.00061
    580.0   0.08424   0.00061
    590.0   0.08467   0.00060
    600.0   0.08462   0.00063
    610.0   0.08496   0.00064
    620.0   0.08502   0.00059
    630.0   0.08518   0.00062
    640.0   0.08529   0.00063
    650.0   0.08544   0.00062
    660.0   0.08542   0.00075
    670.0   0.08573   0.00067
    680.0   0.08637   0.00068
    690.0   0.08658   0.00067
    700.0   0.08667   0.00070
    710.0   0.08689   0.00062
    720.0   0.08653   0.00069
    730.0   0.08674   0.00072
    740.0   0.08667   0.00071
    750.0   0.08661   0.00080
    760.0   0.08650   0.00066
    770.0   0.08664   0.00069
    780.0   0.08645   0.00084
    790.0   0.08637   0.00081
    800.0   0.08600   0.00543
    810.0   0.08601   0.00485
    820.0   0.08610   0.00468
    830.0   0.08590   0.00419
    840.0   0.08578   0.00397
    850.0   0.08565   0.00333
    860.0   0.08563   0.00466
    870.0   0.08547   0.00381
    880.0   0.08551   0.00331
    890.0   0.08546   0.00236
    900.0   0.08536   0.00219
    910.0   0.08531   0.00208
    920.0   0.08539   0.00323
    930.0   0.08547   0.00322
    940.0   0.08526   0.00260
    950.0   0.08512   0.00242
    960.0   0.08495   0.00229
    970.0   0.08471   0.00200
    980.0   0.08423   0.00318
    990.0   0.08397   0.00287
   1000.0   0.08350   0.00288
   1010.0   0.08332   0.00255
   1020.0   0.08329   0.00241
   1030.0   0.08305   0.00237
   1040.0   0.08295   0.00227
   1050.0   0.08309   0.00213
   1060.0   0.08319   0.00197
   1070.0   0.08320   0.00196
   1080.0   0.08344   0.00196
   1090.0   0.08370   0.00196
   1100.0   0.08393   0.00185
   1110.0   0.08412   0.00322
   1120.0   0.08437   0.00337
   1130.0   0.08459   0.00302
   1140.0   0.08480   0.00283
   1150.0   0.08502   0.00281
   1160.0   0.08575   0.00284
   1170.0   0.08565   0.00256
   1180.0   0.08591   0.00263
   1190.0   0.08602   0.00258
   1200.0   0.08611   0.00262
   1210.0   0.08626   0.00246
   1220.0   0.08643   0.00229
   1230.0   0.08654   0.00243
   1240.0   0.08681   0.00215
   1250.0   0.08683   0.00201
   1260.0   0.08683   0.00199
   1270.0   0.08717   0.00206
   1280.0   0.08734   0.00198
   1290.0   0.08704   0.00267
   1300.0   0.08768   0.00263
   1310.0   0.08769   0.00262
   1320.0   0.08787   0.00249
   1330.0   0.08806   0.00240
   1340.0   0.08832   0.00231
   1350.0   0.08850   0.00249
   1360.0   0.08865   0.00285
   1370.0   0.08884   0.00265
   1380.0   0.08909   0.00269
   1390.0   0.08938   0.00235
   1400.0   0.08945   0.00274
   1410.0   0.08964   0.00213
   1420.0   0.08991   0.00218
   1430.0   0.09004   0.00204
   1440.0   0.09028   0.00199
   1450.0   0.09052   0.00193
   1460.0   0.09082   0.00193
   1470.0   0.09110   0.00193
   1480.0   0.09121   0.00186
   1490.0   0.09110   0.00177
   1500.0   0.09133   0.00183
   1510.0   0.09139   0.00189
   1520.0   0.09142   0.00171
   1530.0   0.09151   0.00177
   1540.0   0.09187   0.00200
   1550.0   0.09170   0.00191
   1560.0   0.09207   0.00181
   1570.0   0.09177   0.00176
   1580.0   0.09207   0.00193
   1590.0   0.09210   0.00173
   1600.0   0.09215   0.00174
   1610.0   0.09212   0.00181
   1620.0   0.09223   0.00201
   1630.0   0.09216   0.00199
   1640.0   0.09216   0.00181
   1650.0   0.09225   0.00188
   1660.0   0.09221   0.00186
   1670.0   0.09215   0.00184
   1680.0   0.09208   0.00182
   1690.0   0.09206   0.00192
   1700.0   0.09212   0.00193
   1710.0   0.09194   0.00173
   1720.0   0.09169   0.00185
   1730.0   0.09185   0.00178
   1740.0   0.09162   0.00147
   1750.0   0.09169   0.00155
   1760.0   0.09155   0.00179
   1770.0   0.09142   0.00165
   1780.0   0.09156   0.00164
   1790.0   0.09130   0.00179
   1800.0   0.09122   0.00163
   1810.0   0.09119   0.00182
   1820.0   0.09099   0.00197
   1830.0   0.09095   0.00213
   1840.0   0.09074   0.00210
   1850.0   0.09059   0.00211
   1860.0   0.09073   0.00206
   1870.0   0.09079   0.00260
   1880.0   0.09077   0.00249
   1890.0   0.09048   0.00203
   1900.0   0.08981   0.00227
   1910.0   0.09015   0.00211
   1920.0   0.09018   0.00211
   1930.0   0.09007   0.00199
   1940.0   0.09012   0.00193
   1950.0   0.09011   0.00195
   1960.0   0.09002   0.00192
   1970.0   0.09011   0.00199
   1980.0   0.09010   0.00200
   1990.0   0.09002   0.00210
   2000.0   0.08969   0.00206
   2010.0   0.09006   0.00199
   2020.0   0.08992   0.00203
   2030.0   0.09037   0.00202
   2040.0   0.09051   0.00204
   2050.0   0.09025   0.00216
   2060.0   0.09017   0.00202
   2070.0   0.09011   0.00195
   2080.0   0.09008   0.00218
   2090.0   0.09016   0.00207
   2100.0   0.09004   0.00208
   2110.0   0.09040   0.00222
   2120.0   0.09046   0.00227
   2130.0   0.09006   0.00228
   2140.0   0.08999   0.00228
   2150.0   0.09012   0.00235
   2160.0   0.09058   0.00251
   2170.0   0.09050   0.00231
   2180.0   0.09061   0.00257
   2190.0   0.09113   0.00262
   2200.0   0.09100   0.00306
   2210.0   0.09111   0.00332
   2220.0   0.09109   0.00317
   2230.0   0.09100   0.00310
   2240.0   0.09095   0.00327
   2250.0   0.09143   0.00324
   2260.0   0.09147   0.00308
   2270.0   0.09173   0.00342
   2280.0   0.09186   0.00347
   2290.0   0.09188   0.00316
   2300.0   0.09182   0.00319
   2310.0   0.09148   0.00303
   2320.0   0.09141   0.00320
   2330.0   0.09193   0.00323
   2340.0   0.09186   0.00320
   2350.0   0.09183   0.00333
   2360.0   0.09162   0.00302
   2370.0   0.09190   0.00308
   2380.0   0.09175   0.00299
   2390.0   0.09159   0.00328
   2400.0   0.09169   0.00313
   2410.0   0.09202   0.00348
   2420.0   0.09256   0.00323
   2430.0   0.09204   0.00332
   2440.0   0.09224   0.00358
   2450.0   0.09226   0.00353
   2460.0   0.09223   0.00191
   2470.0   0.09188   0.00199
   2480.0   0.09212   0.00200
   2490.0   0.09186   0.00201
   2500.0   0.09173   0.00202
   2510.0   0.09201   0.00221
   2520.0   0.09200   0.00231
   2530.0   0.09226   0.00287
   2540.0   0.09196   0.00310
   2550.0   0.09239   0.00378



 C1MT92E             .ASC                        

 MT-BEC-092-E                                                            
 Allende <75 um                                                          
 (30, 0) / Halon (30, 0)                                                 
 * User: MEB                                                             
 * Research Type: DDAP, Student,                                         
 * NASA PI/CoI or Sponsor: BEC                                           
 * BVC: Visitor                                                          
 * Public Release Date: 05/06/2010                                       
 * Run Mode: All Samples at Each Wavelength                              
 * Stage Type: Automatic - Alternate                                     
 * Spinning: Yes                                                         
 * Azimuth Angle: 0.0                                                    
 * Aperture Size: 5.0                                                    
 * Scrambler: In                                                         
 * Depolarizer: Out                                                      
 * Initial Background at Home: 7.450450e-004                             
 RATIOS ADJUSTED USING NBS HALON CALIBRATION TABLE                       

 Source Ang: 30.00   Detect Ang:  0.00  Volt: 0.777
 Date: 05-MAY-09   Time: 16:41:02
