   224
    320.0   0.42744   0.05861
    330.0   0.45185   0.03554
    340.0   0.47359   0.02354
    350.0   0.49129   0.01707
    360.0   0.50939   0.01362
    370.0   0.52573   0.01195
    380.0   0.54251   0.01137
    390.0   0.55451   0.01125
    400.0   0.56959   0.01057
    410.0   0.58106   0.01059
    420.0   0.59164   0.01134
    430.0   0.60254   0.01070
    440.0   0.61210   0.01113
    450.0   0.62253   0.01101
    460.0   0.63203   0.01238
    470.0   0.64121   0.01244
    480.0   0.64773   0.01253
    490.0   0.65615   0.01215
    500.0   0.66080   0.01278
    510.0   0.66831   0.01322
    520.0   0.67467   0.01278
    530.0   0.68002   0.01271
    540.0   0.68463   0.01427
    550.0   0.69171   0.01375
    560.0   0.69686   0.01320
    570.0   0.70006   0.01369
    580.0   0.70442   0.01435
    590.0   0.70842   0.01397
    600.0   0.70916   0.01353
    610.0   0.71298   0.01388
    620.0   0.71653   0.01406
    630.0   0.71908   0.01339
    640.0   0.72182   0.01429
    650.0   0.72271   0.01491
    660.0   0.72536   0.01371
    670.0   0.72534   0.01463
    680.0   0.72759   0.01438
    690.0   0.72980   0.01516
    700.0   0.72995   0.01436
    710.0   0.73019   0.01489
    720.0   0.73200   0.01469
    730.0   0.73478   0.01469
    740.0   0.73471   0.01560
    750.0   0.73622   0.01462
    760.0   0.73731   0.01442
    770.0   0.73720   0.01450
    780.0   0.73803   0.01442
    790.0   0.73840   0.01485
    800.0   0.73727   0.01947
    810.0   0.73802   0.02013
    820.0   0.73919   0.01872
    830.0   0.73982   0.01911
    840.0   0.74118   0.02052
    850.0   0.74107   0.01818
    860.0   0.74436   0.02089
    870.0   0.74272   0.02020
    880.0   0.74337   0.02214
    890.0   0.74389   0.01936
    900.0   0.74444   0.01989
    910.0   0.74466   0.01561
    920.0   0.74696   0.01567
    930.0   0.74803   0.01537
    940.0   0.74925   0.01594
    950.0   0.75017   0.01482
    960.0   0.75164   0.01445
    970.0   0.75209   0.01528
    980.0   0.75389   0.01374
    990.0   0.75569   0.01418
   1000.0   0.75689   0.01487
   1010.0   0.75842   0.01466
   1020.0   0.76052   0.01664
   1030.0   0.76131   0.01481
   1040.0   0.76194   0.01624
   1050.0   0.76233   0.01548
   1060.0   0.76282   0.01528
   1070.0   0.76333   0.01439
   1080.0   0.76383   0.01462
   1090.0   0.76423   0.01459
   1100.0   0.76486   0.01497
   1110.0   0.76505   0.01508
   1120.0   0.76506   0.01432
   1130.0   0.76506   0.01482
   1140.0   0.76563   0.01408
   1150.0   0.76602   0.01407
   1160.0   0.76661   0.01499
   1170.0   0.76749   0.01603
   1180.0   0.76823   0.01429
   1190.0   0.76895   0.01549
   1200.0   0.76883   0.01380
   1210.0   0.76906   0.01389
   1220.0   0.76857   0.01466
   1230.0   0.76860   0.01452
   1240.0   0.76828   0.01500
   1250.0   0.76938   0.01548
   1260.0   0.76938   0.01525
   1270.0   0.76974   0.01558
   1280.0   0.76949   0.01476
   1290.0   0.76955   0.01410
   1300.0   0.76928   0.01543
   1310.0   0.76938   0.01575
   1320.0   0.76990   0.01448
   1330.0   0.76983   0.01512
   1340.0   0.77035   0.01499
   1350.0   0.76942   0.01581
   1360.0   0.77005   0.01458
   1370.0   0.76805   0.01447
   1380.0   0.76829   0.01501
   1390.0   0.76736   0.01563
   1400.0   0.76592   0.01378
   1410.0   0.76422   0.01595
   1420.0   0.76460   0.01550
   1430.0   0.76277   0.01526
   1440.0   0.76298   0.01474
   1450.0   0.76282   0.01573
   1460.0   0.76311   0.01571
   1470.0   0.76332   0.01462
   1480.0   0.76415   0.01586
   1490.0   0.76505   0.01520
   1500.0   0.76583   0.01538
   1510.0   0.76677   0.01560
   1520.0   0.76755   0.01588
   1530.0   0.76830   0.01493
   1540.0   0.76835   0.01499
   1550.0   0.76887   0.01554
   1560.0   0.76921   0.01538
   1570.0   0.76967   0.01422
   1580.0   0.76972   0.01597
   1590.0   0.77015   0.01490
   1600.0   0.76995   0.01537
   1610.0   0.77005   0.01600
   1620.0   0.77053   0.01471
   1630.0   0.77065   0.01599
   1640.0   0.77140   0.01583
   1650.0   0.77189   0.01548
   1660.0   0.77206   0.01483
   1670.0   0.77180   0.01446
   1680.0   0.77167   0.01425
   1690.0   0.77148   0.01577
   1700.0   0.77162   0.01514
   1710.0   0.77244   0.01520
   1720.0   0.77169   0.01462
   1730.0   0.77157   0.01442
   1740.0   0.77096   0.01467
   1750.0   0.77009   0.01489
   1760.0   0.77034   0.01420
   1770.0   0.77111   0.01498
   1780.0   0.77050   0.01463
   1790.0   0.77333   0.01473
   1800.0   0.77401   0.01422
   1810.0   0.77420   0.01438
   1820.0   0.77565   0.01558
   1830.0   0.77432   0.01458
   1840.0   0.77340   0.01458
   1850.0   0.77387   0.01437
   1860.0   0.77165   0.01537
   1870.0   0.76993   0.01591
   1880.0   0.76674   0.01413
   1890.0   0.76069   0.01419
   1900.0   0.75240   0.01483
   1910.0   0.74553   0.01286
   1920.0   0.73769   0.01269
   1930.0   0.72796   0.01427
   1940.0   0.72540   0.01338
   1950.0   0.72587   0.01251
   1960.0   0.73224   0.01301
   1970.0   0.73536   0.01348
   1980.0   0.73606   0.01311
   1990.0   0.74070   0.01274
   2000.0   0.74475   0.01316
   2010.0   0.75277   0.01279
   2020.0   0.75674   0.01368
   2030.0   0.75722   0.01431
   2040.0   0.75915   0.01423
   2050.0   0.76029   0.01451
   2060.0   0.75939   0.01410
   2070.0   0.76059   0.01348
   2080.0   0.76219   0.01448
   2090.0   0.76305   0.01436
   2100.0   0.75999   0.01469
   2110.0   0.76099   0.01469
   2120.0   0.76223   0.01458
   2130.0   0.76207   0.01630
   2140.0   0.76278   0.01459
   2150.0   0.76371   0.01488
   2160.0   0.76179   0.01398
   2170.0   0.76034   0.01429
   2180.0   0.76065   0.01403
   2190.0   0.76028   0.01400
   2200.0   0.75999   0.01508
   2210.0   0.75969   0.01423
   2220.0   0.75871   0.01369
   2230.0   0.75742   0.01411
   2240.0   0.75565   0.01434
   2250.0   0.75639   0.01333
   2260.0   0.75443   0.01354
   2270.0   0.75314   0.01486
   2280.0   0.75190   0.01338
   2290.0   0.75053   0.01317
   2300.0   0.75115   0.01433
   2310.0   0.74861   0.01451
   2320.0   0.74889   0.01299
   2330.0   0.74895   0.01388
   2340.0   0.73916   0.01372
   2350.0   0.74291   0.01346
   2360.0   0.74264   0.01400
   2370.0   0.74436   0.01456
   2380.0   0.74202   0.01465
   2390.0   0.73808   0.01341
   2400.0   0.73488   0.01377
   2410.0   0.73259   0.01251
   2420.0   0.72936   0.01354
   2430.0   0.72716   0.01341
   2440.0   0.72507   0.01385
   2450.0   0.72416   0.01318
   2460.0   0.72272   0.01298
   2470.0   0.72206   0.01356
   2480.0   0.71716   0.01274
   2490.0   0.71810   0.01254
   2500.0   0.71611   0.01315
   2510.0   0.71780   0.01372
   2520.0   0.71694   0.01377
   2530.0   0.72409   0.01270
   2540.0   0.71983   0.01327
   2550.0   0.72212   0.01282



 C1TB47      .ASC                        

 TB-TJM-047                                                              
 Bishopville aubrite <125 um                                             
 RATIOS ADJUSTED USING NBS HALON CALIBRATION TABLE                       
 * User: THB                                                             
 * Research Type: Cosmochemistry, Active Missions, NEAR,                 
 * NASA PI/CoI or Sponsor: TJM                                           
 * BVC: Visitor                                                          
 * Public Release Date: 10/12/2003                                       
 * Run Mode: All Wavelengths for Each Sample                             
 * Stage Type: Automatic                                                 
 * Spinning: Yes                                                         
 * Aperture Size: 3.5 mm                                                 
 * Scrambler: Out                                                        
 * Depolarizer: Out                                                      

 Source Ang: 30.00   Detect Ang:  0.00  Volt: 0.777
 Date: 13-OCT-00   Time: 08:09:25
