       224
    320.00   .038529   .004556
    330.00   .039747   .003578
    340.00   .041135   .003729
    350.00   .042214   .002921
    360.00   .044161   .001240
    370.00   .046458   .000824
    380.00   .049238   .000698
    390.00   .051728   .000728
    400.00   .054999   .002452
    410.00   .057630   .001804
    420.00   .060595   .001411
    430.00   .063407   .001550
    440.00   .066997   .001374
    450.00   .070256   .001186
    460.00   .072338   .001145
    470.00   .073902   .001035
    480.00   .075822   .000980
    490.00   .077962   .000903
    500.00   .080777   .000840
    510.00   .084267   .000848
    520.00   .087919   .000790
    530.00   .091504   .000800
    540.00   .095031   .000873
    550.00   .097996   .000811
    560.00   .100765   .000804
    570.00   .103201   .000796
    580.00   .104930   .000862
    590.00   .106698   .000819
    600.00   .107945   .000920
    610.00   .108815   .000925
    620.00   .109394   .000939
    630.00   .110013   .000965
    640.00   .110597   .001016
    650.00   .110996   .001063
    660.00   .111354   .001099
    670.00   .111616   .001138
    680.00   .111865   .001179
    690.00   .111930   .001204
    700.00   .112284   .001253
    710.00   .112582   .001325
    720.00   .112863   .001428
    730.00   .113065   .001566
    740.00   .113262   .001749
    750.00   .113296   .001964
    760.00   .113322   .002213
    770.00   .113313   .002484
    780.00   .113275   .002782
    790.00   .113239   .003059
    800.00   .113242   .003410
    810.00   .112970   .003570
    820.00   .112926   .003810
    830.00   .112900   .006451
    840.00   .112616   .006168
    850.00   .112572   .005828
    860.00   .112238   .005381
    870.00   .112056   .005797
    880.00   .111973   .004983
    890.00   .111769   .004266
    900.00   .111729   .003722
    910.00   .111744   .003327
    920.00   .111792   .003053
    930.00   .111816   .002821
    940.00   .111929   .002559
    950.00   .112042   .002259
    960.00   .112184   .001997
    970.00   .112482   .001670
    980.00   .112502   .001508
    990.00   .113061   .001323
   1000.00   .113083   .001253
   1010.00   .113439   .001192
   1020.00   .113582   .001144
   1030.00   .113912   .001561
   1040.00   .114223   .001513
   1050.00   .114455   .001423
   1060.00   .114766   .001410
   1070.00   .114995   .001262
   1080.00   .115399   .001229
   1090.00   .115797   .001251
   1100.00   .116022   .001091
   1110.00   .116395   .001085
   1120.00   .116766   .001046
   1130.00   .116994   .000991
   1140.00   .117422   .000982
   1150.00   .117722   .000955
   1160.00   .117920   .000985
   1170.00   .118070   .000900
   1180.00   .118345   .000911
   1190.00   .118708   .000849
   1200.00   .118892   .000857
   1210.00   .119047   .000811
   1220.00   .119320   .000777
   1230.00   .119533   .000782
   1240.00   .119729   .000761
   1250.00   .119803   .000846
   1260.00   .120333   .000804
   1270.00   .120459   .000813
   1280.00   .120767   .000829
   1290.00   .121000   .000853
   1300.00   .121171   .000812
   1310.00   .121387   .000954
   1320.00   .121741   .000918
   1330.00   .122046   .000883
   1340.00   .122277   .000867
   1350.00   .122372   .000905
   1360.00   .122490   .000920
   1370.00   .122651   .000984
   1380.00   .122815   .001018
   1390.00   .123251   .001054
   1400.00   .123564   .001088
   1410.00   .123879   .001112
   1420.00   .124108   .001105
   1430.00   .124309   .001077
   1440.00   .124478   .001156
   1450.00   .124928   .001107
   1460.00   .124993   .001130
   1470.00   .125399   .001041
   1480.00   .125597   .001107
   1490.00   .125853   .001055
   1500.00   .126037   .001043
   1510.00   .126206   .001014
   1520.00   .126257   .001105
   1530.00   .126573   .001160
   1540.00   .126987   .001127
   1550.00   .127113   .001191
   1560.00   .127495   .001212
   1570.00   .127700   .001167
   1580.00   .127785   .001214
   1590.00   .128089   .001173
   1600.00   .128148   .001172
   1610.00   .128480   .001231
   1620.00   .128797   .001308
   1630.00   .128653   .001376
   1640.00   .129291   .001370
   1650.00   .129503   .001279
   1660.00   .129763   .001433
   1670.00   .130096   .001332
   1680.00   .130322   .001390
   1690.00   .130527   .001355
   1700.00   .130800   .001357
   1710.00   .131002   .001409
   1720.00   .131132   .001268
   1730.00   .131199   .001281
   1740.00   .131309   .001414
   1750.00   .131311   .001360
   1760.00   .131640   .001438
   1770.00   .131839   .001372
   1780.00   .131782   .001176
   1790.00   .131984   .001163
   1800.00   .132055   .001273
   1810.00   .132243   .001037
   1820.00   .132513   .001139
   1830.00   .132899   .001145
   1840.00   .133123   .001163
   1850.00   .133056   .001189
   1860.00   .133208   .001262
   1870.00   .133096   .001240
   1880.00   .132969   .001237
   1890.00   .132886   .001234
   1900.00   .133078   .001205
   1910.00   .133037   .001117
   1920.00   .133206   .001100
   1930.00   .133366   .001062
   1940.00   .133627   .001043
   1950.00   .133711   .000955
   1960.00   .133837   .000980
   1970.00   .133982   .001143
   1980.00   .134168   .001162
   1990.00   .134213   .001137
   2000.00   .134500   .001174
   2010.00   .134807   .001208
   2020.00   .134949   .001158
   2030.00   .135207   .001080
   2040.00   .135352   .001104
   2050.00   .135786   .001228
   2060.00   .135907   .001315
   2070.00   .135978   .001269
   2080.00   .136145   .001302
   2090.00   .136145   .001214
   2100.00   .136200   .001225
   2110.00   .136726   .001050
   2120.00   .136948   .000983
   2130.00   .137072   .001069
   2140.00   .137223   .001086
   2150.00   .137569   .001201
   2160.00   .137701   .001309
   2170.00   .137684   .001209
   2180.00   .137597   .001110
   2190.00   .137537   .001279
   2200.00   .137806   .001516
   2210.00   .137895   .001351
   2220.00   .138268   .001330
   2230.00   .138356   .001334
   2240.00   .138576   .001301
   2250.00   .138796   .001325
   2260.00   .138920   .001307
   2270.00   .139056   .001337
   2280.00   .139263   .001307
   2290.00   .139395   .001157
   2300.00   .139129   .001198
   2310.00   .139453   .001245
   2320.00   .139559   .001200
   2330.00   .139583   .001254
   2340.00   .139698   .001225
   2350.00   .139981   .001234
   2360.00   .140000   .001209
   2370.00   .140451   .001231
   2380.00   .140536   .001268
   2390.00   .140959   .001285
   2400.00   .140867   .001318
   2410.00   .141013   .001158
   2420.00   .141419   .001284
   2430.00   .141283   .001385
   2440.00   .141557   .001439
   2450.00   .141441   .001449
   2460.00   .141577   .001492
   2470.00   .141524   .001399
   2480.00   .141940   .001439
   2490.00   .142072   .001438
   2500.00   .142423   .001513
   2510.00   .142308   .001504
   2520.00   .141933   .001501
   2530.00   .141714   .001517
   2540.00   .141494   .001447
   2550.00   .142418   .001503



 C1TB183.ASC            

 TB-MDD-183
 MAC 02675 (CBb) <125 um
 No depolarizer was used over the wavelength ranges of 320-400 & 1800-2550 nm
 Albedo adjusted to the visible range
 
 Source Ang:  30.00, Detect Ang:    .00, Volt:  .777
 Date: 09-DEC-19, Time: 14:22:38
 
 RATIOS ADJUSTED USING RELAB SPECTRALON CALIBRATION TABLE
