   224
    320.0   0.06810   0.00120
    330.0   0.07430   0.00093
    340.0   0.08126   0.00088
    350.0   0.08884   0.00083
    360.0   0.09681   0.00084
    370.0   0.10476   0.00088
    380.0   0.11280   0.00085
    390.0   0.12093   0.00095
    400.0   0.12867   0.00111
    410.0   0.13788   0.00150
    420.0   0.14726   0.00245
    430.0   0.15449   0.00122
    440.0   0.16333   0.00125
    450.0   0.17046   0.00128
    460.0   0.17656   0.00133
    470.0   0.18141   0.00135
    480.0   0.18757   0.00142
    490.0   0.19377   0.00145
    500.0   0.20234   0.00152
    510.0   0.21222   0.00162
    520.0   0.22365   0.00169
    530.0   0.23468   0.00177
    540.0   0.24649   0.00183
    550.0   0.25666   0.00196
    560.0   0.26723   0.00200
    570.0   0.27574   0.00186
    580.0   0.28339   0.00195
    590.0   0.28901   0.00200
    600.0   0.29436   0.00202
    610.0   0.29777   0.00221
    620.0   0.30141   0.00223
    630.0   0.30361   0.00202
    640.0   0.30687   0.00196
    650.0   0.30950   0.00228
    660.0   0.31236   0.00227
    670.0   0.31473   0.00212
    680.0   0.31703   0.00212
    690.0   0.31826   0.00210
    700.0   0.31969   0.00217
    710.0   0.32088   0.00215
    720.0   0.32104   0.00226
    730.0   0.32083   0.00230
    740.0   0.31897   0.00233
    750.0   0.31730   0.00225
    760.0   0.31439   0.00230
    770.0   0.31072   0.00225
    780.0   0.30610   0.00220
    790.0   0.30012   0.00225
    800.0   0.29359   0.00209
    810.0   0.28619   0.00216
    820.0   0.27826   0.00222
    830.0   0.26993   0.00232
    840.0   0.26220   0.00213
    850.0   0.25446   0.00213
    860.0   0.24700   0.00227
    870.0   0.23921   0.00433
    880.0   0.23562   0.00396
    890.0   0.23146   0.00537
    900.0   0.22841   0.00616
    910.0   0.22452   0.00446
    920.0   0.22211   0.00334
    930.0   0.22060   0.00196
    940.0   0.22049   0.00077
    950.0   0.22151   0.00341
    960.0   0.22336   0.00206
    970.0   0.22613   0.00249
    980.0   0.22883   0.00401
    990.0   0.23142   0.00122
   1000.0   0.23398   0.00239
   1010.0   0.23719   0.00179
   1020.0   0.24035   0.00143
   1030.0   0.24254   0.00231
   1040.0   0.24458   0.00174
   1050.0   0.24683   0.00320
   1060.0   0.24983   0.00143
   1070.0   0.25237   0.00091
   1080.0   0.25574   0.00287
   1090.0   0.25835   0.00195
   1100.0   0.26156   0.00096
   1110.0   0.26479   0.00132
   1120.0   0.26954   0.00064
   1130.0   0.27325   0.00097
   1140.0   0.27612   0.00129
   1150.0   0.27860   0.00190
   1160.0   0.28067   0.00115
   1170.0   0.28247   0.00155
   1180.0   0.28407   0.00227
   1190.0   0.28579   0.00289
   1200.0   0.28684   0.00216
   1210.0   0.28751   0.00247
   1220.0   0.28871   0.00079
   1230.0   0.29028   0.00115
   1240.0   0.29114   0.00264
   1250.0   0.29253   0.00023
   1260.0   0.29388   0.00345
   1270.0   0.29601   0.00421
   1280.0   0.29687   0.00362
   1290.0   0.29892   0.00485
   1300.0   0.30065   0.00154
   1310.0   0.30217   0.00068
   1320.0   0.30366   0.00360
   1330.0   0.30527   0.00275
   1340.0   0.30714   0.00117
   1350.0   0.30884   0.00151
   1360.0   0.31037   0.00121
   1370.0   0.31191   0.00320
   1380.0   0.31388   0.00290
   1390.0   0.31584   0.00056
   1400.0   0.31660   0.00348
   1410.0   0.31855   0.00300
   1420.0   0.32044   0.00277
   1430.0   0.32168   0.00110
   1440.0   0.32256   0.00145
   1450.0   0.32352   0.00241
   1460.0   0.32482   0.00276
   1470.0   0.32546   0.00443
   1480.0   0.32620   0.00279
   1490.0   0.32720   0.00205
   1500.0   0.32795   0.00226
   1510.0   0.32805   0.00358
   1520.0   0.32856   0.00288
   1530.0   0.32868   0.00348
   1540.0   0.32852   0.00450
   1550.0   0.32847   0.00101
   1560.0   0.32854   0.00266
   1570.0   0.32769   0.00322
   1580.0   0.32757   0.00381
   1590.0   0.32697   0.00271
   1600.0   0.32647   0.00043
   1610.0   0.32517   0.00079
   1620.0   0.32399   0.00009
   1630.0   0.32230   0.00090
   1640.0   0.32113   0.00302
   1650.0   0.31971   0.00242
   1660.0   0.31901   0.00171
   1670.0   0.31822   0.00114
   1680.0   0.31685   0.00225
   1690.0   0.31559   0.00022
   1700.0   0.31419   0.00329
   1710.0   0.31254   0.00389
   1720.0   0.31091   0.00314
   1730.0   0.30974   0.00060
   1740.0   0.30801   0.00543
   1750.0   0.30683   0.00103
   1760.0   0.30552   0.00086
   1770.0   0.30443   0.00156
   1780.0   0.30330   0.00211
   1790.0   0.30201   0.00074
   1800.0   0.30100   0.00405
   1810.0   0.30010   0.00126
   1820.0   0.29895   0.00430
   1830.0   0.29784   0.00381
   1840.0   0.29770   0.00241
   1850.0   0.29669   0.00206
   1860.0   0.29648   0.00068
   1870.0   0.29620   0.00279
   1880.0   0.29504   0.00295
   1890.0   0.29420   0.00030
   1900.0   0.29432   0.00366
   1910.0   0.29354   0.00058
   1920.0   0.29342   0.00121
   1930.0   0.29387   0.00108
   1940.0   0.29352   0.00055
   1950.0   0.29334   0.00173
   1960.0   0.29353   0.00196
   1970.0   0.29403   0.00001
   1980.0   0.29428   0.00136
   1990.0   0.29539   0.00179
   2000.0   0.29584   0.00012
   2010.0   0.29682   0.00044
   2020.0   0.29711   0.00058
   2030.0   0.29830   0.00003
   2040.0   0.29947   0.00188
   2050.0   0.29998   0.00200
   2060.0   0.30075   0.00008
   2070.0   0.30152   0.00215
   2080.0   0.30247   0.00041
   2090.0   0.30301   0.00219
   2100.0   0.30484   0.00450
   2110.0   0.30547   0.00291
   2120.0   0.30710   0.00011
   2130.0   0.30788   0.00012
   2140.0   0.30897   0.00539
   2150.0   0.30968   0.00232
   2160.0   0.31156   0.00431
   2170.0   0.31335   0.00225
   2180.0   0.31473   0.00261
   2190.0   0.31643   0.00086
   2200.0   0.31831   0.00530
   2210.0   0.31998   0.00434
   2220.0   0.32084   0.00064
   2230.0   0.32177   0.00115
   2240.0   0.32207   0.00390
   2250.0   0.32303   0.00124
   2260.0   0.32299   0.00170
   2270.0   0.32335   0.00069
   2280.0   0.32475   0.00397
   2290.0   0.32620   0.00056
   2300.0   0.32659   0.00275
   2310.0   0.32738   0.00030
   2320.0   0.32817   0.00054
   2330.0   0.32746   0.00074
   2340.0   0.32690   0.00426
   2350.0   0.32692   0.00398
   2360.0   0.32786   0.00056
   2370.0   0.32778   0.00553
   2380.0   0.32881   0.00048
   2390.0   0.32873   0.00126
   2400.0   0.32943   0.00107
   2410.0   0.32970   0.00062
   2420.0   0.33089   0.00201
   2430.0   0.33115   0.00180
   2440.0   0.33292   0.00179
   2450.0   0.33315   0.00041
   2460.0   0.33394   0.00625
   2470.0   0.33454   0.00480
   2480.0   0.33487   0.00164
   2490.0   0.33494   0.00111
   2500.0   0.33595   0.00066
   2510.0   0.33603   0.00043
   2520.0   0.33594   0.00170
   2530.0   0.33569   0.00313
   2540.0   0.33465   0.00005
   2550.0   0.33319   0.00099



 C1TB64      .ASC                        

 TB-TJM-064                                                              
 Apt (L6) <150 um                                                        
 Smoothed (890-2550 nm)                                                  
 * User: THB                                                             
 * Research Type: Cosmochemistry, Active Missions, Asteroid-Meteorite,   
 * NASA PI/CoI or Sponsor: TJM                                           
 * BVC: Visitor                                                          
 * Public Release Date: 11/02/2004                                       
 * Run Mode: All Samples at Each Wavelength                              
 * Stage Type: Automatic                                                 
 * Spinning: Yes                                                         
 * Aperture Size: 7.0 mm                                                 
 * Scrambler: Out                                                        
 * Depolarizer: Out                                                      
 RATIOS ADJUSTED USING NBS HALON CALIBRATION TABLE                       

 Source Ang: 30.00   Detect Ang:  0.00  Volt: 0.777
 Date:  1-NOV-01   Time: 17:32:06
