   224
    320.0   0.08911   0.00365
    330.0   0.10188   0.00255
    340.0   0.11763   0.00215
    350.0   0.13606   0.00195
    360.0   0.15523   0.00198
    370.0   0.17220   0.00222
    380.0   0.18573   0.00226
    390.0   0.19709   0.00267
    400.0   0.20563   0.00295
    410.0   0.21661   0.00383
    420.0   0.22391   0.00265
    430.0   0.22989   0.00270
    440.0   0.23667   0.00265
    450.0   0.24044   0.00276
    460.0   0.24625   0.00285
    470.0   0.25223   0.00295
    480.0   0.25954   0.00295
    490.0   0.26441   0.00303
    500.0   0.26971   0.00315
    510.0   0.27724   0.00313
    520.0   0.28394   0.00311
    530.0   0.29000   0.00340
    540.0   0.29624   0.00344
    550.0   0.30088   0.00350
    560.0   0.30568   0.00365
    570.0   0.30969   0.00340
    580.0   0.31203   0.00372
    590.0   0.31399   0.00359
    600.0   0.31598   0.00379
    610.0   0.31733   0.00384
    620.0   0.31945   0.00384
    630.0   0.32133   0.00368
    640.0   0.32416   0.00385
    650.0   0.32658   0.00386
    660.0   0.32808   0.00372
    670.0   0.32968   0.00392
    680.0   0.33112   0.00357
    690.0   0.33116   0.00362
    700.0   0.33149   0.00357
    710.0   0.33119   0.00385
    720.0   0.33041   0.00381
    730.0   0.32862   0.00392
    740.0   0.32627   0.00404
    750.0   0.32223   0.00402
    760.0   0.31775   0.00403
    770.0   0.31111   0.00417
    780.0   0.30400   0.00384
    790.0   0.29507   0.00383
    800.0   0.28423   0.00349
    810.0   0.27493   0.00471
    820.0   0.26432   0.00464
    830.0   0.25555   0.00421
    840.0   0.24451   0.00360
    850.0   0.23490   0.00347
    860.0   0.22813   0.00310
    870.0   0.22112   0.00300
    880.0   0.21517   0.00318
    890.0   0.21053   0.00324
    900.0   0.20708   0.00301
    910.0   0.20442   0.00307
    920.0   0.20243   0.00298
    930.0   0.20119   0.00261
    940.0   0.20107   0.00290
    950.0   0.20145   0.00269
    960.0   0.20327   0.00310
    970.0   0.20411   0.00301
    980.0   0.20693   0.00296
    990.0   0.20962   0.00283
   1000.0   0.21346   0.00268
   1010.0   0.21720   0.00378
   1020.0   0.22045   0.00320
   1030.0   0.22374   0.00361
   1040.0   0.22660   0.00344
   1050.0   0.23024   0.00331
   1060.0   0.23234   0.00320
   1070.0   0.23657   0.00324
   1080.0   0.24137   0.00346
   1090.0   0.24517   0.00323
   1100.0   0.25008   0.00282
   1110.0   0.25440   0.00303
   1120.0   0.25984   0.00324
   1130.0   0.26389   0.00334
   1140.0   0.26720   0.00320
   1150.0   0.27221   0.00322
   1160.0   0.27451   0.00330
   1170.0   0.27751   0.00386
   1180.0   0.27989   0.00292
   1190.0   0.28180   0.00369
   1200.0   0.28564   0.00391
   1210.0   0.28726   0.00393
   1220.0   0.28870   0.00457
   1230.0   0.29202   0.00426
   1240.0   0.29334   0.00401
   1250.0   0.29503   0.00379
   1260.0   0.29605   0.00454
   1270.0   0.29905   0.00370
   1280.0   0.30141   0.00362
   1290.0   0.30323   0.00367
   1300.0   0.30583   0.00391
   1310.0   0.30708   0.00365
   1320.0   0.31039   0.00400
   1330.0   0.31308   0.00377
   1340.0   0.31601   0.00414
   1350.0   0.31782   0.00396
   1360.0   0.32107   0.00407
   1370.0   0.32428   0.00444
   1380.0   0.32791   0.00379
   1390.0   0.32933   0.00410
   1400.0   0.33191   0.00415
   1410.0   0.33416   0.00411
   1420.0   0.33677   0.00420
   1430.0   0.33968   0.00425
   1440.0   0.34212   0.00426
   1450.0   0.34473   0.00446
   1460.0   0.34627   0.00463
   1470.0   0.34743   0.00449
   1480.0   0.34832   0.00429
   1490.0   0.34914   0.00438
   1500.0   0.35042   0.00418
   1510.0   0.35065   0.00445
   1520.0   0.35159   0.00465
   1530.0   0.35133   0.00448
   1540.0   0.35129   0.00512
   1550.0   0.35123   0.00473
   1560.0   0.34968   0.00420
   1570.0   0.34999   0.00477
   1580.0   0.34788   0.00431
   1590.0   0.34679   0.00506
   1600.0   0.34406   0.00517
   1610.0   0.34219   0.00453
   1620.0   0.34010   0.00475
   1630.0   0.33832   0.00468
   1640.0   0.33512   0.00465
   1650.0   0.33323   0.00429
   1660.0   0.33124   0.00405
   1670.0   0.32913   0.00406
   1680.0   0.32737   0.00381
   1690.0   0.32430   0.00370
   1700.0   0.32315   0.00350
   1710.0   0.32134   0.00323
   1720.0   0.31931   0.00320
   1730.0   0.31715   0.00340
   1740.0   0.31458   0.00350
   1750.0   0.31336   0.00404
   1760.0   0.31095   0.00353
   1770.0   0.30920   0.00355
   1780.0   0.30745   0.00311
   1790.0   0.30573   0.00343
   1800.0   0.30466   0.00374
   1810.0   0.30305   0.00328
   1820.0   0.30198   0.00341
   1830.0   0.30126   0.00328
   1840.0   0.29948   0.00371
   1850.0   0.29875   0.00359
   1860.0   0.29725   0.00366
   1870.0   0.29897   0.00397
   1880.0   0.29583   0.00321
   1890.0   0.29623   0.00364
   1900.0   0.29656   0.00349
   1910.0   0.29500   0.00354
   1920.0   0.29529   0.00379
   1930.0   0.29567   0.00379
   1940.0   0.29521   0.00365
   1950.0   0.29586   0.00359
   1960.0   0.29529   0.00351
   1970.0   0.29681   0.00365
   1980.0   0.29694   0.00357
   1990.0   0.29903   0.00340
   2000.0   0.29944   0.00341
   2010.0   0.29996   0.00370
   2020.0   0.30139   0.00362
   2030.0   0.30166   0.00381
   2040.0   0.30348   0.00387
   2050.0   0.30557   0.00366
   2060.0   0.30642   0.00421
   2070.0   0.30878   0.00404
   2080.0   0.30998   0.00370
   2090.0   0.31220   0.00405
   2100.0   0.31333   0.00347
   2110.0   0.31457   0.00379
   2120.0   0.31714   0.00405
   2130.0   0.31849   0.00384
   2140.0   0.31973   0.00402
   2150.0   0.32163   0.00371
   2160.0   0.32360   0.00368
   2170.0   0.32455   0.00398
   2180.0   0.32691   0.00376
   2190.0   0.32816   0.00456
   2200.0   0.33089   0.00398
   2210.0   0.33198   0.00393
   2220.0   0.33402   0.00382
   2230.0   0.33535   0.00395
   2240.0   0.33709   0.00394
   2250.0   0.33800   0.00410
   2260.0   0.33983   0.00375
   2270.0   0.34152   0.00383
   2280.0   0.34301   0.00392
   2290.0   0.34435   0.00402
   2300.0   0.34602   0.00455
   2310.0   0.34668   0.00446
   2320.0   0.34617   0.00450
   2330.0   0.34772   0.00397
   2340.0   0.34845   0.00408
   2350.0   0.34892   0.00381
   2360.0   0.34975   0.00447
   2370.0   0.34864   0.00457
   2380.0   0.35030   0.00438
   2390.0   0.35114   0.00430
   2400.0   0.35255   0.00505
   2410.0   0.35413   0.00398
   2420.0   0.35505   0.00528
   2430.0   0.35527   0.00469
   2440.0   0.35570   0.00460
   2450.0   0.35613   0.00488
   2460.0   0.35615   0.00448
   2470.0   0.35672   0.00469
   2480.0   0.35765   0.00442
   2490.0   0.35917   0.00471
   2500.0   0.36054   0.00510
   2510.0   0.36061   0.00510
   2520.0   0.36053   0.00518
   2530.0   0.36275   0.00564
   2540.0   0.36261   0.00490
   2550.0   0.36363   0.00521



 C1TB112     .ASC                        

 TB-TJM-112                                                              
 Nejo L6 <150 um                                                         
 RATIOS ADJUSTED USING NBS HALON CALIBRATION TABLE                       
 * User: THB                                                             
 * Research Type: Cosmochemistry, Active Missions, Asteroid-Meteorite,   
 * NASA PI/CoI or Sponsor: TJM                                           
 * BVC: Visitor                                                          
 * Public Release Date: 03/25/2005                                       
 * Run Mode: All Wavelengths for Each Sample                             
 * Stage Type: Automatic                                                 
 * Spinning: Yes                                                         
 * Aperture Size: 3.5 mm                                                 
 * Scrambler: Out                                                        
 * Depolarizer: Out                                                      

 Source Ang: 30.00   Detect Ang:  0.00  Volt: 0.777
 Date: 25-MAR-02   Time: 12:22:12
