   224
    320.0   0.04564   0.00276
    330.0   0.04773   0.00274
    340.0   0.04970   0.00268
    350.0   0.05284   0.00264
    360.0   0.05638   0.00270
    370.0   0.06070   0.00275
    380.0   0.06522   0.00289
    390.0   0.07214   0.00329
    400.0   0.07633   0.00329
    410.0   0.08056   0.00308
    420.0   0.08505   0.00325
    430.0   0.08959   0.00343
    440.0   0.09519   0.00373
    450.0   0.09896   0.00394
    460.0   0.10213   0.00407
    470.0   0.10365   0.00401
    480.0   0.10618   0.00427
    490.0   0.11050   0.00447
    500.0   0.11608   0.00483
    510.0   0.11870   0.00497
    520.0   0.13256   0.00546
    530.0   0.14115   0.00582
    540.0   0.14704   0.00613
    550.0   0.15081   0.00625
    560.0   0.16117   0.00658
    570.0   0.16978   0.00671
    580.0   0.17684   0.00693
    590.0   0.18324   0.00706
    600.0   0.18921   0.00716
    610.0   0.19497   0.00732
    620.0   0.20064   0.00747
    630.0   0.20640   0.00749
    640.0   0.21278   0.00769
    650.0   0.21939   0.00774
    660.0   0.22634   0.00798
    670.0   0.23380   0.00804
    680.0   0.24195   0.00806
    690.0   0.24853   0.00818
    700.0   0.25611   0.00829
    710.0   0.26305   0.00841
    720.0   0.26709   0.00844
    730.0   0.26930   0.01001
    740.0   0.26259   0.00803
    750.0   0.25187   0.00791
    760.0   0.23621   0.00776
    770.0   0.21742   0.00739
    780.0   0.19736   0.00708
    790.0   0.17806   0.00665
    800.0   0.16165   0.00588
    810.0   0.14515   0.00593
    820.0   0.13283   0.00561
    830.0   0.12437   0.00533
    840.0   0.11641   0.00517
    850.0   0.11128   0.00486
    860.0   0.10594   0.00543
    870.0   0.10319   0.00472
    880.0   0.09877   0.00402
    890.0   0.09742   0.00352
    900.0   0.09474   0.00350
    910.0   0.09333   0.00345
    920.0   0.09125   0.00349
    930.0   0.09090   0.00269
    940.0   0.09041   0.00260
    950.0   0.09003   0.00240
    960.0   0.08994   0.00220
    970.0   0.09041   0.00205
    980.0   0.09070   0.00232
    990.0   0.09195   0.00217
   1000.0   0.09382   0.00246
   1010.0   0.09411   0.00233
   1020.0   0.09662   0.00238
   1030.0   0.09871   0.00256
   1040.0   0.10149   0.00252
   1050.0   0.10425   0.00234
   1060.0   0.10755   0.00244
   1070.0   0.11003   0.00245
   1080.0   0.11433   0.00265
   1090.0   0.11837   0.00277
   1100.0   0.12343   0.00299
   1110.0   0.12868   0.00278
   1120.0   0.13415   0.00291
   1130.0   0.14031   0.00324
   1140.0   0.14599   0.00352
   1150.0   0.14997   0.00359
   1160.0   0.15458   0.00363
   1170.0   0.15823   0.00376
   1180.0   0.16196   0.00380
   1190.0   0.16453   0.00392
   1200.0   0.16705   0.00426
   1210.0   0.16957   0.00605
   1220.0   0.17171   0.00509
   1230.0   0.17425   0.00531
   1240.0   0.17760   0.00539
   1250.0   0.18068   0.00522
   1260.0   0.18415   0.00579
   1270.0   0.18748   0.00567
   1280.0   0.19175   0.00571
   1290.0   0.19568   0.00567
   1300.0   0.20086   0.00582
   1310.0   0.20560   0.00597
   1320.0   0.21129   0.00618
   1330.0   0.21478   0.00603
   1340.0   0.22115   0.00646
   1350.0   0.22560   0.00658
   1360.0   0.22811   0.00651
   1370.0   0.23650   0.00685
   1380.0   0.24008   0.00717
   1390.0   0.24730   0.00708
   1400.0   0.24915   0.00637
   1410.0   0.25495   0.00753
   1420.0   0.25797   0.00684
   1430.0   0.26020   0.00660
   1440.0   0.26286   0.00749
   1450.0   0.26299   0.00681
   1460.0   0.26334   0.00712
   1470.0   0.26306   0.00680
   1480.0   0.26163   0.00707
   1490.0   0.25933   0.00698
   1500.0   0.25542   0.00691
   1510.0   0.25161   0.00695
   1520.0   0.24880   0.00642
   1530.0   0.24396   0.00673
   1540.0   0.23953   0.00604
   1550.0   0.23436   0.00626
   1560.0   0.22862   0.00622
   1570.0   0.22284   0.00664
   1580.0   0.21679   0.00657
   1590.0   0.20966   0.00621
   1600.0   0.20467   0.00606
   1610.0   0.19865   0.00561
   1620.0   0.19300   0.00576
   1630.0   0.18742   0.00583
   1640.0   0.18184   0.00573
   1650.0   0.17640   0.00527
   1660.0   0.17131   0.00553
   1670.0   0.16814   0.00767
   1680.0   0.16181   0.00533
   1690.0   0.15769   0.00528
   1700.0   0.15425   0.00561
   1710.0   0.15039   0.00527
   1720.0   0.14710   0.00533
   1730.0   0.14444   0.00493
   1740.0   0.14224   0.00500
   1750.0   0.13868   0.00503
   1760.0   0.13648   0.00521
   1770.0   0.13439   0.00496
   1780.0   0.13247   0.00499
   1790.0   0.13036   0.00498
   1800.0   0.12852   0.00488
   1810.0   0.12661   0.00463
   1820.0   0.12498   0.00477
   1830.0   0.12374   0.00475
   1840.0   0.12208   0.00476
   1850.0   0.12046   0.00457
   1860.0   0.11952   0.00457
   1870.0   0.11862   0.00454
   1880.0   0.11753   0.00462
   1890.0   0.11675   0.00448
   1900.0   0.11627   0.00468
   1910.0   0.11538   0.00470
   1920.0   0.11469   0.00466
   1930.0   0.11374   0.00432
   1940.0   0.11387   0.00462
   1950.0   0.11376   0.00442
   1960.0   0.11340   0.00430
   1970.0   0.11268   0.00441
   1980.0   0.11239   0.00444
   1990.0   0.11243   0.00451
   2000.0   0.11185   0.00449
   2010.0   0.11179   0.00456
   2020.0   0.11263   0.00454
   2030.0   0.11223   0.00449
   2040.0   0.11245   0.00463
   2050.0   0.11226   0.00447
   2060.0   0.11280   0.00453
   2070.0   0.11258   0.00464
   2080.0   0.11317   0.00494
   2090.0   0.11376   0.00478
   2100.0   0.11418   0.00466
   2110.0   0.11539   0.00503
   2120.0   0.11619   0.00501
   2130.0   0.11731   0.00511
   2140.0   0.11720   0.00518
   2150.0   0.11822   0.00501
   2160.0   0.11934   0.00504
   2170.0   0.12042   0.00506
   2180.0   0.12174   0.00520
   2190.0   0.12307   0.00535
   2200.0   0.12344   0.00561
   2210.0   0.12545   0.00503
   2220.0   0.12706   0.00544
   2230.0   0.12840   0.00549
   2240.0   0.13038   0.00540
   2250.0   0.13295   0.00569
   2260.0   0.13438   0.00551
   2270.0   0.13656   0.00574
   2280.0   0.13908   0.00602
   2290.0   0.14157   0.00637
   2300.0   0.14371   0.00624
   2310.0   0.14662   0.00632
   2320.0   0.14888   0.00614
   2330.0   0.15133   0.00653
   2340.0   0.15376   0.00650
   2350.0   0.15646   0.00689
   2360.0   0.15967   0.00680
   2370.0   0.16227   0.00727
   2380.0   0.16496   0.00710
   2390.0   0.16819   0.00726
   2400.0   0.17161   0.00751
   2410.0   0.17502   0.00766
   2420.0   0.17833   0.00740
   2430.0   0.18225   0.00829
   2440.0   0.18551   0.00797
   2450.0   0.18912   0.00828
   2460.0   0.19292   0.00835
   2470.0   0.19601   0.00808
   2480.0   0.20253   0.01177
   2490.0   0.20449   0.00855
   2500.0   0.20904   0.00903
   2510.0   0.21248   0.00904
   2520.0   0.21762   0.00947
   2530.0   0.22146   0.01008
   2540.0   0.22571   0.00992
   2550.0   0.23154   0.01015



 C1TB20      .ASC                        

 TB-RPB-020                                                              
 EET90020 <1 mm                                                          
 * User: THB                                                             
 * Research Type: Student, Planetary Astronomy,                          
 * NASA PI/CoI or Sponsor: RPB                                           
 * BVC: Visitor                                                          
 * Public Release Date: 06/02/2002                                       
 * Run Mode: All Wavelengths for Each Sample                             
 * Stage Type: Automatic                                                 
 * Spinning: Yes                                                         
 * Aperture Size: 7.0 mm                                                 
 * Scrambler: In                                                         
 * Depolarizer: Out                                                      
 RATIOS ADJUSTED USING NBS HALON CALIBRATION TABLE                       

 Source Ang: 30.00   Detect Ang:  0.00  Volt: 0.777
 Date:  2-JUL-99   Time: 16:14:29
