   224
    320.0   0.05676   0.03343
    330.0   0.06347   0.02098
    340.0   0.06608   0.01411
    350.0   0.07060   0.00987
    360.0   0.07490   0.00703
    370.0   0.08108   0.00534
    380.0   0.08697   0.00439
    390.0   0.09553   0.00474
    400.0   0.10225   0.00301
    410.0   0.11063   0.00262
    420.0   0.11662   0.00260
    430.0   0.12794   0.00262
    440.0   0.13625   0.00282
    450.0   0.14524   0.00271
    460.0   0.15072   0.00282
    470.0   0.15740   0.00262
    480.0   0.16440   0.00288
    490.0   0.17380   0.00216
    500.0   0.18103   0.00257
    510.0   0.19155   0.00250
    520.0   0.20179   0.00261
    530.0   0.21252   0.00271
    540.0   0.22110   0.00298
    550.0   0.23403   0.00273
    560.0   0.24213   0.00291
    570.0   0.24852   0.00301
    580.0   0.25545   0.00317
    590.0   0.26260   0.00272
    600.0   0.26638   0.00273
    610.0   0.27228   0.00310
    620.0   0.27372   0.00282
    630.0   0.27603   0.00299
    640.0   0.27942   0.00274
    650.0   0.28368   0.00292
    660.0   0.28512   0.00326
    670.0   0.28758   0.00329
    680.0   0.29000   0.00309
    690.0   0.29105   0.00307
    700.0   0.29270   0.00312
    710.0   0.29406   0.00332
    720.0   0.29454   0.00334
    730.0   0.29354   0.00365
    740.0   0.29321   0.00364
    750.0   0.29075   0.00369
    760.0   0.28865   0.00376
    770.0   0.28599   0.00342
    780.0   0.28138   0.00346
    790.0   0.27562   0.00329
    800.0   0.27098   0.00328
    810.0   0.26421   0.00316
    820.0   0.25674   0.00329
    830.0   0.24999   0.00299
    840.0   0.24237   0.00302
    850.0   0.23566   0.00298
    860.0   0.22904   0.00253
    870.0   0.22279   0.00235
    880.0   0.21845   0.00215
    890.0   0.21382   0.00207
    900.0   0.21072   0.00211
    910.0   0.20832   0.00230
    920.0   0.20648   0.00222
    930.0   0.20574   0.00221
    940.0   0.20507   0.00219
    950.0   0.20569   0.00209
    960.0   0.20598   0.00257
    970.0   0.20838   0.00263
    980.0   0.21057   0.00254
    990.0   0.21288   0.00253
   1000.0   0.21511   0.00249
   1010.0   0.21803   0.00254
   1020.0   0.22005   0.00225
   1030.0   0.22233   0.00269
   1040.0   0.22523   0.00260
   1050.0   0.22698   0.00250
   1060.0   0.22936   0.00250
   1070.0   0.23220   0.00247
   1080.0   0.23520   0.00258
   1090.0   0.23865   0.00243
   1100.0   0.24249   0.00259
   1110.0   0.24616   0.00233
   1120.0   0.24983   0.00261
   1130.0   0.25373   0.00253
   1140.0   0.25651   0.00269
   1150.0   0.25998   0.00260
   1160.0   0.26287   0.00262
   1170.0   0.26485   0.00287
   1180.0   0.26708   0.00263
   1190.0   0.26912   0.00266
   1200.0   0.27060   0.00277
   1210.0   0.27179   0.00288
   1220.0   0.27373   0.00279
   1230.0   0.27480   0.00273
   1240.0   0.27637   0.00289
   1250.0   0.27760   0.00280
   1260.0   0.27874   0.00267
   1270.0   0.28080   0.00272
   1280.0   0.28194   0.00284
   1290.0   0.28412   0.00275
   1300.0   0.28549   0.00253
   1310.0   0.28759   0.00275
   1320.0   0.29003   0.00271
   1330.0   0.29205   0.00286
   1340.0   0.29378   0.00275
   1350.0   0.29533   0.00284
   1360.0   0.29736   0.00278
   1370.0   0.29897   0.00293
   1380.0   0.30008   0.00263
   1390.0   0.30354   0.00283
   1400.0   0.30444   0.00273
   1410.0   0.30670   0.00301
   1420.0   0.30804   0.00296
   1430.0   0.31079   0.00289
   1440.0   0.31199   0.00284
   1450.0   0.31334   0.00302
   1460.0   0.31448   0.00300
   1470.0   0.31540   0.00301
   1480.0   0.31599   0.00317
   1490.0   0.31721   0.00296
   1500.0   0.31753   0.00313
   1510.0   0.31775   0.00301
   1520.0   0.31811   0.00276
   1530.0   0.31782   0.00296
   1540.0   0.31772   0.00298
   1550.0   0.31743   0.00298
   1560.0   0.31690   0.00293
   1570.0   0.31624   0.00300
   1580.0   0.31548   0.00285
   1590.0   0.31413   0.00293
   1600.0   0.31319   0.00289
   1610.0   0.31247   0.00285
   1620.0   0.31108   0.00304
   1630.0   0.30960   0.00283
   1640.0   0.30859   0.00302
   1650.0   0.30677   0.00295
   1660.0   0.30539   0.00284
   1670.0   0.30448   0.00293
   1680.0   0.30356   0.00281
   1690.0   0.30153   0.00283
   1700.0   0.30038   0.00289
   1710.0   0.29875   0.00277
   1720.0   0.29743   0.00276
   1730.0   0.29593   0.00280
   1740.0   0.29442   0.00286
   1750.0   0.29331   0.00275
   1760.0   0.29161   0.00269
   1770.0   0.29073   0.00274
   1780.0   0.28884   0.00271
   1790.0   0.28836   0.00270
   1800.0   0.28670   0.00264
   1810.0   0.28586   0.00270
   1820.0   0.28429   0.00282
   1830.0   0.28329   0.00276
   1840.0   0.28307   0.00284
   1850.0   0.28264   0.00279
   1860.0   0.28181   0.00278
   1870.0   0.28144   0.00294
   1880.0   0.28055   0.00281
   1890.0   0.28011   0.00272
   1900.0   0.27999   0.00287
   1910.0   0.27944   0.00272
   1920.0   0.27969   0.00272
   1930.0   0.27996   0.00267
   1940.0   0.27988   0.00286
   1950.0   0.27978   0.00262
   1960.0   0.27985   0.00270
   1970.0   0.28005   0.00277
   1980.0   0.28034   0.00277
   1990.0   0.28059   0.00283
   2000.0   0.28132   0.00269
   2010.0   0.28197   0.00270
   2020.0   0.28272   0.00271
   2030.0   0.28313   0.00267
   2040.0   0.28393   0.00265
   2050.0   0.28463   0.00267
   2060.0   0.28519   0.00275
   2070.0   0.28660   0.00280
   2080.0   0.28745   0.00277
   2090.0   0.28844   0.00272
   2100.0   0.28955   0.00290
   2110.0   0.29052   0.00276
   2120.0   0.29187   0.00302
   2130.0   0.29287   0.00288
   2140.0   0.29380   0.00281
   2150.0   0.29489   0.00287
   2160.0   0.29611   0.00293
   2170.0   0.29703   0.00291
   2180.0   0.29835   0.00292
   2190.0   0.29947   0.00310
   2200.0   0.30049   0.00287
   2210.0   0.30117   0.00309
   2220.0   0.30220   0.00304
   2230.0   0.30331   0.00284
   2240.0   0.30426   0.00294
   2250.0   0.30471   0.00286
   2260.0   0.30509   0.00312
   2270.0   0.30599   0.00310
   2280.0   0.30661   0.00305
   2290.0   0.30721   0.00296
   2300.0   0.30795   0.00298
   2310.0   0.30850   0.00302
   2320.0   0.30887   0.00330
   2330.0   0.31016   0.00309
   2340.0   0.31044   0.00325
   2350.0   0.31088   0.00303
   2360.0   0.31067   0.00324
   2370.0   0.31109   0.00322
   2380.0   0.31184   0.00335
   2390.0   0.31232   0.00329
   2400.0   0.31312   0.00333
   2410.0   0.31336   0.00325
   2420.0   0.31467   0.00351
   2430.0   0.31483   0.00352
   2440.0   0.31522   0.00364
   2450.0   0.31547   0.00346
   2460.0   0.31575   0.00341
   2470.0   0.31604   0.00342
   2480.0   0.31652   0.00307
   2490.0   0.31688   0.00294
   2500.0   0.31734   0.00311
   2510.0   0.31708   0.00318
   2520.0   0.31710   0.00310
   2530.0   0.31663   0.00338
   2540.0   0.31636   0.00330
   2550.0   0.31612   0.00336



 C1TB140     .ASC                        

 TB-TJM-140                                                              
 Kyushu (L6) <150 um                                                     
 * User: THB                                                             
 * Research Type: Cosmochemistry, Asteroid-Meteorite,                    
 * NASA PI/CoI or Sponsor: TJM                                           
 * BVC: Visitor                                                          
 * Public Release Date: 08/06/2007                                       
 * Run Mode: All Samples at Each Wavelength                              
 * Stage Type: Automatic                                                 
 * Spinning: Yes                                                         
 * Aperture Size: 3.5 mm                                                 
 * Scrambler: Out                                                        
 * Depolarizer: Out                                                      
 RATIOS ADJUSTED USING NBS HALON CALIBRATION TABLE                       

 Source Ang: 30.00   Detect Ang:  0.00  Volt: 0.777
 Date: 10-AUG-04   Time: 10:10:10
