   224
    320.0   0.12799   0.00364
    330.0   0.14336   0.00254
    340.0   0.15850   0.00227
    350.0   0.17302   0.00182
    360.0   0.18562   0.00161
    370.0   0.19535   0.00163
    380.0   0.20227   0.00156
    390.0   0.20803   0.00190
    400.0   0.21113   0.00210
    410.0   0.21535   0.00292
    420.0   0.21779   0.00139
    430.0   0.21980   0.00125
    440.0   0.22246   0.00117
    450.0   0.22380   0.00123
    460.0   0.22655   0.00105
    470.0   0.22845   0.00114
    480.0   0.23118   0.00121
    490.0   0.23264   0.00132
    500.0   0.23476   0.00117
    510.0   0.23718   0.00126
    520.0   0.23954   0.00125
    530.0   0.24204   0.00125
    540.0   0.24456   0.00125
    550.0   0.24558   0.00110
    560.0   0.24710   0.00124
    570.0   0.24738   0.00134
    580.0   0.24773   0.00125
    590.0   0.24841   0.00131
    600.0   0.24893   0.00135
    610.0   0.25012   0.00136
    620.0   0.25235   0.00137
    630.0   0.25501   0.00143
    640.0   0.25707   0.00144
    650.0   0.25903   0.00144
    660.0   0.25983   0.00146
    670.0   0.26092   0.00157
    680.0   0.26275   0.00132
    690.0   0.26371   0.00158
    700.0   0.26458   0.00164
    710.0   0.26580   0.00217
    720.0   0.26662   0.00217
    730.0   0.26627   0.00223
    740.0   0.26476   0.00331
    750.0   0.26336   0.00322
    760.0   0.26200   0.00356
    770.0   0.25889   0.00319
    780.0   0.25509   0.00339
    790.0   0.25041   0.00283
    800.0   0.24599   0.00364
    810.0   0.23982   0.00387
    820.0   0.23364   0.00406
    830.0   0.22739   0.00374
    840.0   0.22088   0.00347
    850.0   0.21352   0.00294
    860.0   0.20767   0.00291
    870.0   0.20317   0.00274
    880.0   0.19816   0.00330
    890.0   0.19498   0.00240
    900.0   0.19258   0.00251
    910.0   0.19069   0.00272
    920.0   0.18915   0.00241
    930.0   0.18906   0.00230
    940.0   0.18956   0.00260
    950.0   0.19200   0.00213
    960.0   0.19412   0.00284
    970.0   0.19759   0.00276
    980.0   0.20018   0.00260
    990.0   0.20369   0.00262
   1000.0   0.20683   0.00253
   1010.0   0.20976   0.00319
   1020.0   0.21295   0.00337
   1030.0   0.21518   0.00301
   1040.0   0.21732   0.00303
   1050.0   0.21870   0.00362
   1060.0   0.22115   0.00291
   1070.0   0.22258   0.00313
   1080.0   0.22424   0.00302
   1090.0   0.22690   0.00329
   1100.0   0.22815   0.00267
   1110.0   0.23083   0.00278
   1120.0   0.23231   0.00272
   1130.0   0.23517   0.00312
   1140.0   0.23616   0.00278
   1150.0   0.23691   0.00306
   1160.0   0.23856   0.00295
   1170.0   0.23999   0.00336
   1180.0   0.24073   0.00290
   1190.0   0.24133   0.00262
   1200.0   0.24322   0.00244
   1210.0   0.24426   0.00204
   1220.0   0.24482   0.00181
   1230.0   0.24556   0.00159
   1240.0   0.24679   0.00164
   1250.0   0.24762   0.00129
   1260.0   0.24768   0.00122
   1270.0   0.24874   0.00118
   1280.0   0.25017   0.00133
   1290.0   0.25066   0.00138
   1300.0   0.25213   0.00116
   1310.0   0.25261   0.00110
   1320.0   0.25370   0.00103
   1330.0   0.25468   0.00102
   1340.0   0.25574   0.00116
   1350.0   0.25674   0.00126
   1360.0   0.25819   0.00121
   1370.0   0.25907   0.00123
   1380.0   0.26074   0.00127
   1390.0   0.26171   0.00125
   1400.0   0.26251   0.00120
   1410.0   0.26316   0.00133
   1420.0   0.26449   0.00115
   1430.0   0.26392   0.00117
   1440.0   0.26527   0.00116
   1450.0   0.26568   0.00107
   1460.0   0.26541   0.00122
   1470.0   0.26658   0.00117
   1480.0   0.26545   0.00109
   1490.0   0.26547   0.00128
   1500.0   0.26560   0.00129
   1510.0   0.26563   0.00117
   1520.0   0.26545   0.00117
   1530.0   0.26475   0.00125
   1540.0   0.26287   0.00121
   1550.0   0.26387   0.00131
   1560.0   0.26163   0.00137
   1570.0   0.26249   0.00120
   1580.0   0.26056   0.00154
   1590.0   0.25896   0.00138
   1600.0   0.25873   0.00137
   1610.0   0.25787   0.00137
   1620.0   0.25683   0.00138
   1630.0   0.25568   0.00155
   1640.0   0.25384   0.00150
   1650.0   0.25259   0.00208
   1660.0   0.25085   0.00200
   1670.0   0.24977   0.00198
   1680.0   0.24917   0.00249
   1690.0   0.24818   0.00263
   1700.0   0.24613   0.00282
   1710.0   0.24543   0.00228
   1720.0   0.24382   0.00248
   1730.0   0.24251   0.00244
   1740.0   0.24112   0.00240
   1750.0   0.24011   0.00265
   1760.0   0.23834   0.00239
   1770.0   0.23740   0.00228
   1780.0   0.23648   0.00234
   1790.0   0.23598   0.00220
   1800.0   0.23511   0.00290
   1810.0   0.23426   0.00232
   1820.0   0.23362   0.00282
   1830.0   0.23281   0.00257
   1840.0   0.23099   0.00259
   1850.0   0.23102   0.00253
   1860.0   0.22969   0.00280
   1870.0   0.22959   0.00309
   1880.0   0.22961   0.00278
   1890.0   0.22937   0.00289
   1900.0   0.22844   0.00266
   1910.0   0.22875   0.00261
   1920.0   0.22853   0.00272
   1930.0   0.22839   0.00281
   1940.0   0.22895   0.00308
   1950.0   0.22923   0.00304
   1960.0   0.23054   0.00366
   1970.0   0.23072   0.00234
   1980.0   0.23072   0.00322
   1990.0   0.23187   0.00343
   2000.0   0.23170   0.00341
   2010.0   0.23236   0.00366
   2020.0   0.23255   0.00357
   2030.0   0.23411   0.00342
   2040.0   0.23473   0.00326
   2050.0   0.23578   0.00457
   2060.0   0.23719   0.00442
   2070.0   0.23908   0.00419
   2080.0   0.24006   0.00371
   2090.0   0.24036   0.00456
   2100.0   0.24167   0.00456
   2110.0   0.24143   0.00364
   2120.0   0.24263   0.00293
   2130.0   0.24456   0.00290
   2140.0   0.24588   0.00340
   2150.0   0.24671   0.00371
   2160.0   0.24751   0.00339
   2170.0   0.24885   0.00356
   2180.0   0.25015   0.00308
   2190.0   0.25136   0.00359
   2200.0   0.25208   0.00369
   2210.0   0.25331   0.00405
   2220.0   0.25428   0.00388
   2230.0   0.25512   0.00325
   2240.0   0.25644   0.00343
   2250.0   0.25771   0.00372
   2260.0   0.25888   0.00406
   2270.0   0.26078   0.00437
   2280.0   0.26103   0.00383
   2290.0   0.26081   0.00446
   2300.0   0.26216   0.00386
   2310.0   0.26372   0.00408
   2320.0   0.26299   0.00436
   2330.0   0.26325   0.00430
   2340.0   0.26404   0.00450
   2350.0   0.26395   0.00496
   2360.0   0.26560   0.00491
   2370.0   0.26541   0.00512
   2380.0   0.26575   0.00418
   2390.0   0.26615   0.00451
   2400.0   0.26697   0.00535
   2410.0   0.26740   0.00518
   2420.0   0.26796   0.00551
   2430.0   0.26836   0.00546
   2440.0   0.26912   0.00472
   2450.0   0.26933   0.00483
   2460.0   0.27029   0.00307
   2470.0   0.27070   0.00298
   2480.0   0.27122   0.00325
   2490.0   0.27211   0.00262
   2500.0   0.27264   0.00269
   2510.0   0.27369   0.00324
   2520.0   0.27356   0.00317
   2530.0   0.27391   0.00340
   2540.0   0.27468   0.00370
   2550.0   0.27487   0.00361



 C1TB108     .ASC                        

 TB-TJM-108                                                              
 Magombedze (H5) <150 um                                                 
 USNM 7073                                                               
 RATIOS ADJUSTED USING NBS HALON CALIBRATION TABLE                       
 * User: THB                                                             
 * Research Type: Cosmochemistry, Active Missions, Asteroid-Meteorite,   
 * NASA PI/CoI or Sponsor: TJM                                           
 * BVC: Visitor                                                          
 * Public Release Date: 03/21/2005                                       
 * Run Mode: All Wavelengths for Each Sample                             
 * Stage Type: Automatic                                                 
 * Spinning: Yes                                                         
 * Aperture Size: 3.5 mm                                                 
 * Scrambler: Out                                                        
 * Depolarizer: Out                                                      

 Source Ang: 30.00   Detect Ang:  0.00  Volt: 0.777
 Date: 21-MAR-02   Time: 14:18:31
