   224
    320.0   0.09077   0.03047
    330.0   0.09608   0.01904
    340.0   0.10100   0.01318
    350.0   0.10521   0.00917
    360.0   0.11162   0.00674
    370.0   0.11773   0.00500
    380.0   0.12580   0.00421
    390.0   0.13357   0.00460
    400.0   0.14320   0.00293
    410.0   0.15114   0.00234
    420.0   0.16007   0.00234
    430.0   0.16934   0.00225
    440.0   0.17903   0.00237
    450.0   0.18780   0.00252
    460.0   0.19409   0.00236
    470.0   0.19984   0.00254
    480.0   0.20542   0.00266
    490.0   0.21195   0.00267
    500.0   0.21902   0.00282
    510.0   0.22804   0.00287
    520.0   0.23664   0.00286
    530.0   0.24592   0.00294
    540.0   0.25352   0.00285
    550.0   0.26150   0.00292
    560.0   0.26762   0.00361
    570.0   0.27296   0.00353
    580.0   0.27743   0.00344
    590.0   0.28121   0.00334
    600.0   0.28423   0.00338
    610.0   0.28677   0.00340
    620.0   0.28888   0.00350
    630.0   0.29079   0.00347
    640.0   0.29279   0.00324
    650.0   0.29393   0.00318
    660.0   0.29540   0.00326
    670.0   0.29637   0.00333
    680.0   0.29795   0.00345
    690.0   0.29824   0.00359
    700.0   0.29904   0.00341
    710.0   0.29978   0.00341
    720.0   0.30018   0.00344
    730.0   0.29990   0.00332
    740.0   0.29964   0.00331
    750.0   0.29897   0.00361
    760.0   0.29747   0.00332
    770.0   0.29612   0.00324
    780.0   0.29357   0.00320
    790.0   0.29099   0.00332
    800.0   0.28769   0.00362
    810.0   0.28323   0.00354
    820.0   0.27918   0.00357
    830.0   0.27409   0.00351
    840.0   0.26965   0.00347
    850.0   0.26459   0.00334
    860.0   0.25955   0.00299
    870.0   0.25635   0.00296
    880.0   0.25244   0.00286
    890.0   0.24916   0.00263
    900.0   0.24710   0.00268
    910.0   0.24560   0.00282
    920.0   0.24419   0.00259
    930.0   0.24376   0.00265
    940.0   0.24440   0.00266
    950.0   0.24547   0.00257
    960.0   0.24748   0.00295
    970.0   0.25022   0.00292
    980.0   0.25264   0.00289
    990.0   0.25573   0.00292
   1000.0   0.25808   0.00273
   1010.0   0.26078   0.00284
   1020.0   0.26310   0.00285
   1030.0   0.26471   0.00287
   1040.0   0.26655   0.00285
   1050.0   0.26895   0.00305
   1060.0   0.26996   0.00275
   1070.0   0.27097   0.00284
   1080.0   0.27262   0.00277
   1090.0   0.27425   0.00285
   1100.0   0.27557   0.00294
   1110.0   0.27785   0.00288
   1120.0   0.27926   0.00281
   1130.0   0.28140   0.00283
   1140.0   0.28210   0.00285
   1150.0   0.28361   0.00283
   1160.0   0.28464   0.00292
   1170.0   0.28568   0.00291
   1180.0   0.28595   0.00288
   1190.0   0.28704   0.00292
   1200.0   0.28699   0.00273
   1210.0   0.28791   0.00307
   1220.0   0.28811   0.00296
   1230.0   0.28865   0.00293
   1240.0   0.28873   0.00285
   1250.0   0.28949   0.00298
   1260.0   0.28971   0.00279
   1270.0   0.29031   0.00302
   1280.0   0.29054   0.00295
   1290.0   0.29103   0.00294
   1300.0   0.29207   0.00292
   1310.0   0.29220   0.00307
   1320.0   0.29263   0.00323
   1330.0   0.29327   0.00289
   1340.0   0.29437   0.00305
   1350.0   0.29423   0.00319
   1360.0   0.29480   0.00336
   1370.0   0.29526   0.00339
   1380.0   0.29580   0.00365
   1390.0   0.29628   0.00363
   1400.0   0.29651   0.00348
   1410.0   0.29709   0.00372
   1420.0   0.29755   0.00366
   1430.0   0.29787   0.00349
   1440.0   0.29824   0.00343
   1450.0   0.29857   0.00324
   1460.0   0.29855   0.00319
   1470.0   0.29861   0.00336
   1480.0   0.29855   0.00358
   1490.0   0.29897   0.00333
   1500.0   0.29823   0.00325
   1510.0   0.29870   0.00319
   1520.0   0.29779   0.00317
   1530.0   0.29791   0.00329
   1540.0   0.29709   0.00297
   1550.0   0.29666   0.00325
   1560.0   0.29657   0.00315
   1570.0   0.29576   0.00323
   1580.0   0.29509   0.00336
   1590.0   0.29456   0.00317
   1600.0   0.29338   0.00324
   1610.0   0.29257   0.00326
   1620.0   0.29143   0.00370
   1630.0   0.29028   0.00357
   1640.0   0.28924   0.00371
   1650.0   0.28881   0.00354
   1660.0   0.28823   0.00309
   1670.0   0.28753   0.00326
   1680.0   0.28714   0.00291
   1690.0   0.28553   0.00274
   1700.0   0.28472   0.00310
   1710.0   0.28377   0.00295
   1720.0   0.28296   0.00297
   1730.0   0.28181   0.00296
   1740.0   0.28078   0.00299
   1750.0   0.28016   0.00287
   1760.0   0.27933   0.00316
   1770.0   0.27803   0.00291
   1780.0   0.27734   0.00284
   1790.0   0.27659   0.00290
   1800.0   0.27570   0.00309
   1810.0   0.27504   0.00312
   1820.0   0.27395   0.00298
   1830.0   0.27349   0.00290
   1840.0   0.27327   0.00322
   1850.0   0.27256   0.00336
   1860.0   0.27239   0.00324
   1870.0   0.27231   0.00316
   1880.0   0.27169   0.00317
   1890.0   0.27127   0.00291
   1900.0   0.27131   0.00303
   1910.0   0.27089   0.00326
   1920.0   0.27105   0.00322
   1930.0   0.27137   0.00293
   1940.0   0.27160   0.00308
   1950.0   0.27163   0.00302
   1960.0   0.27170   0.00288
   1970.0   0.27189   0.00280
   1980.0   0.27235   0.00329
   1990.0   0.27179   0.00341
   2000.0   0.27273   0.00312
   2010.0   0.27217   0.00300
   2020.0   0.27361   0.00306
   2030.0   0.27366   0.00302
   2040.0   0.27464   0.00312
   2050.0   0.27477   0.00313
   2060.0   0.27543   0.00332
   2070.0   0.27642   0.00316
   2080.0   0.27650   0.00327
   2090.0   0.27681   0.00326
   2100.0   0.27790   0.00348
   2110.0   0.27872   0.00330
   2120.0   0.27905   0.00335
   2130.0   0.27963   0.00329
   2140.0   0.27953   0.00347
   2150.0   0.28052   0.00331
   2160.0   0.28106   0.00317
   2170.0   0.28147   0.00292
   2180.0   0.28143   0.00332
   2190.0   0.28221   0.00350
   2200.0   0.28255   0.00344
   2210.0   0.28327   0.00354
   2220.0   0.28354   0.00363
   2230.0   0.28399   0.00314
   2240.0   0.28460   0.00343
   2250.0   0.28527   0.00327
   2260.0   0.28517   0.00307
   2270.0   0.28524   0.00318
   2280.0   0.28577   0.00349
   2290.0   0.28653   0.00322
   2300.0   0.28701   0.00319
   2310.0   0.28640   0.00336
   2320.0   0.28651   0.00337
   2330.0   0.28693   0.00334
   2340.0   0.28770   0.00358
   2350.0   0.28772   0.00366
   2360.0   0.28765   0.00348
   2370.0   0.28739   0.00341
   2380.0   0.28792   0.00340
   2390.0   0.28787   0.00324
   2400.0   0.28831   0.00337
   2410.0   0.28844   0.00357
   2420.0   0.28908   0.00350
   2430.0   0.28950   0.00355
   2440.0   0.29003   0.00368
   2450.0   0.28993   0.00406
   2460.0   0.28897   0.00378
   2470.0   0.28910   0.00382
   2480.0   0.29022   0.00332
   2490.0   0.28966   0.00310
   2500.0   0.28925   0.00330
   2510.0   0.28980   0.00335
   2520.0   0.28990   0.00337
   2530.0   0.28792   0.00354
   2540.0   0.28985   0.00355
   2550.0   0.28882   0.00385



 C1TB123     .ASC                        

 TB-TJM-123                                                              
 Sitathali H5 <150 um                                                    
 * User: THB                                                             
 * Research Type: Cosmochemistry, Asteroid-Meteorite,                    
 * NASA PI/CoI or Sponsor: TJM                                           
 * BVC: Visitor                                                          
 * Public Release Date: 07/23/2007                                       
 * Run Mode: All Samples at Each Wavelength                              
 * Stage Type: Automatic                                                 
 * Spinning: Yes                                                         
 * Aperture Size: 3.5 mm                                                 
 * Scrambler: Out                                                        
 * Depolarizer: Out                                                      
 RATIOS ADJUSTED USING NBS HALON CALIBRATION TABLE                       

 Source Ang: 30.00   Detect Ang:  0.00  Volt: 0.777
 Date: 23-JUL-04   Time: 10:31:17
