   224
    320.0   0.09827   0.03828
    330.0   0.09952   0.02506
    340.0   0.10182   0.01906
    350.0   0.10289   0.01518
    360.0   0.10515   0.01434
    370.0   0.10742   0.01341
    380.0   0.11005   0.01414
    390.0   0.11391   0.01493
    400.0   0.11540   0.01517
    410.0   0.11769   0.01565
    420.0   0.12066   0.01633
    430.0   0.12363   0.01667
    440.0   0.12679   0.01745
    450.0   0.12968   0.01791
    460.0   0.13109   0.01813
    470.0   0.13274   0.01872
    480.0   0.13455   0.01892
    490.0   0.13705   0.01899
    500.0   0.14070   0.01964
    510.0   0.14510   0.02023
    520.0   0.15088   0.02062
    530.0   0.15704   0.02082
    540.0   0.16349   0.02142
    550.0   0.16939   0.02123
    560.0   0.17518   0.02147
    570.0   0.18068   0.02166
    580.0   0.18550   0.02180
    590.0   0.18942   0.02209
    600.0   0.19299   0.02238
    610.0   0.19545   0.02289
    620.0   0.19793   0.02337
    630.0   0.20065   0.02435
    640.0   0.20215   0.02431
    650.0   0.20411   0.02465
    660.0   0.20390   0.02503
    670.0   0.20514   0.02485
    680.0   0.20648   0.02483
    690.0   0.20586   0.02490
    700.0   0.20656   0.02498
    710.0   0.20676   0.02514
    720.0   0.20805   0.02558
    730.0   0.20935   0.02641
    740.0   0.20876   0.02699
    750.0   0.20652   0.02724
    760.0   0.20388   0.02760
    770.0   0.19966   0.02797
    780.0   0.19503   0.02885
    790.0   0.19038   0.03000
    800.0   0.18394   0.03543
    810.0   0.17852   0.03476
    820.0   0.17345   0.03495
    830.0   0.16824   0.03500
    840.0   0.16418   0.03511
    850.0   0.16046   0.03555
    860.0   0.15711   0.03759
    870.0   0.15483   0.03600
    880.0   0.15216   0.03753
    890.0   0.14967   0.03588
    900.0   0.14795   0.03539
    910.0   0.14707   0.03620
    920.0   0.14641   0.03565
    930.0   0.14650   0.03690
    940.0   0.14673   0.03725
    950.0   0.14735   0.03707
    960.0   0.14860   0.03741
    970.0   0.15005   0.03751
    980.0   0.15132   0.03896
    990.0   0.15316   0.03778
   1000.0   0.15513   0.03843
   1010.0   0.15734   0.03896
   1020.0   0.16008   0.03824
   1030.0   0.16305   0.03725
   1040.0   0.16569   0.03900
   1050.0   0.16803   0.03902
   1060.0   0.17033   0.03905
   1070.0   0.17211   0.03912
   1080.0   0.17387   0.03849
   1090.0   0.17586   0.04020
   1100.0   0.17783   0.03986
   1110.0   0.17967   0.04005
   1120.0   0.18141   0.04132
   1130.0   0.18310   0.04119
   1140.0   0.18458   0.04151
   1150.0   0.18581   0.04028
   1160.0   0.18664   0.04129
   1170.0   0.18768   0.04171
   1180.0   0.18837   0.04094
   1190.0   0.18874   0.04137
   1200.0   0.18900   0.04144
   1210.0   0.18935   0.04223
   1220.0   0.18945   0.04249
   1230.0   0.18964   0.04190
   1240.0   0.18981   0.04208
   1250.0   0.19051   0.04261
   1260.0   0.19113   0.04173
   1270.0   0.19143   0.04267
   1280.0   0.19204   0.04424
   1290.0   0.19289   0.04476
   1300.0   0.19340   0.04494
   1310.0   0.19411   0.04568
   1320.0   0.19507   0.04615
   1330.0   0.19610   0.04649
   1340.0   0.19664   0.04658
   1350.0   0.19688   0.04716
   1360.0   0.19735   0.04721
   1370.0   0.19764   0.04705
   1380.0   0.19752   0.04909
   1390.0   0.19778   0.04565
   1400.0   0.19801   0.04675
   1410.0   0.19807   0.04806
   1420.0   0.19844   0.04872
   1430.0   0.19857   0.04724
   1440.0   0.19921   0.04855
   1450.0   0.19951   0.04859
   1460.0   0.19989   0.04780
   1470.0   0.19978   0.04880
   1480.0   0.19950   0.04801
   1490.0   0.19910   0.04826
   1500.0   0.19840   0.04730
   1510.0   0.19757   0.04831
   1520.0   0.19687   0.04866
   1530.0   0.19608   0.04883
   1540.0   0.19477   0.04774
   1550.0   0.19374   0.04845
   1560.0   0.19271   0.04881
   1570.0   0.19135   0.04759
   1580.0   0.19046   0.04891
   1590.0   0.18983   0.04858
   1600.0   0.18901   0.04854
   1610.0   0.18833   0.04897
   1620.0   0.18782   0.05013
   1630.0   0.18692   0.05039
   1640.0   0.18589   0.05074
   1650.0   0.18531   0.05228
   1660.0   0.18489   0.05193
   1670.0   0.18482   0.05344
   1680.0   0.18469   0.05479
   1690.0   0.18473   0.05468
   1700.0   0.18501   0.05682
   1710.0   0.18483   0.05852
   1720.0   0.18462   0.05843
   1730.0   0.18439   0.05876
   1740.0   0.18418   0.05990
   1750.0   0.18398   0.06044
   1760.0   0.18256   0.06252
   1770.0   0.18164   0.06174
   1780.0   0.18108   0.06193
   1790.0   0.18056   0.06182
   1800.0   0.18040   0.06270
   1810.0   0.18021   0.06313
   1820.0   0.18048   0.06376
   1830.0   0.18007   0.06335
   1840.0   0.17981   0.06487
   1850.0   0.18040   0.06204
   1860.0   0.17890   0.06215
   1870.0   0.17853   0.06543
   1880.0   0.17936   0.05861
   1890.0   0.17947   0.06235
   1900.0   0.17849   0.06474
   1910.0   0.18000   0.06303
   1920.0   0.18015   0.06428
   1930.0   0.17954   0.06492
   1940.0   0.17985   0.06321
   1950.0   0.18025   0.06465
   1960.0   0.18045   0.06433
   1970.0   0.18082   0.06372
   1980.0   0.18123   0.06301
   1990.0   0.18151   0.06353
   2000.0   0.18183   0.06422
   2010.0   0.18259   0.06308
   2020.0   0.18304   0.06465
   2030.0   0.18356   0.06507
   2040.0   0.18427   0.06332
   2050.0   0.18507   0.06422
   2060.0   0.18562   0.06424
   2070.0   0.18669   0.06421
   2080.0   0.18747   0.06425
   2090.0   0.18808   0.06476
   2100.0   0.18862   0.06559
   2110.0   0.18961   0.06543
   2120.0   0.19024   0.06500
   2130.0   0.19084   0.06723
   2140.0   0.19215   0.06766
   2150.0   0.19339   0.06815
   2160.0   0.19439   0.06802
   2170.0   0.19557   0.06872
   2180.0   0.19700   0.06838
   2190.0   0.19804   0.06932
   2200.0   0.19922   0.06984
   2210.0   0.20040   0.07086
   2220.0   0.20146   0.06993
   2230.0   0.20232   0.07098
   2240.0   0.20311   0.07134
   2250.0   0.20412   0.07065
   2260.0   0.20476   0.07039
   2270.0   0.20532   0.07232
   2280.0   0.20593   0.07163
   2290.0   0.20618   0.07143
   2300.0   0.20595   0.07203
   2310.0   0.20618   0.07059
   2320.0   0.20584   0.07212
   2330.0   0.20531   0.07034
   2340.0   0.20459   0.06977
   2350.0   0.20419   0.06859
   2360.0   0.20369   0.06745
   2370.0   0.20353   0.06782
   2380.0   0.20362   0.06815
   2390.0   0.20355   0.06679
   2400.0   0.20380   0.06698
   2410.0   0.20359   0.06516
   2420.0   0.20313   0.06477
   2430.0   0.20244   0.06412
   2440.0   0.20195   0.06247
   2450.0   0.20147   0.06198
   2460.0   0.20111   0.06197
   2470.0   0.20126   0.06134
   2480.0   0.20076   0.06128
   2490.0   0.20076   0.06076
   2500.0   0.20025   0.06099
   2510.0   0.20041   0.06148
   2520.0   0.19954   0.06176
   2530.0   0.19948   0.06442
   2540.0   0.19941   0.06188
   2550.0   0.19937   0.06427



 C1TB35      .ASC                        

 TB-TJM-035                                                              
 Acapulco chip                                                           
 RATIOS ADJUSTED USING NBS HALON CALIBRATION TABLE                       
 * User: THB                                                             
 * Research Type: Cosmochemistry, Active Missions, NEAR,                 
 * NASA PI/CoI or Sponsor: TJM                                           
 * BVC: Visitor                                                          
 * Public Release Date: 10/02/2003                                       
 * Run Mode: All Wavelengths for Each Sample                             
 * Stage Type: Automatic                                                 
 * Spinning: Yes                                                         
 * Aperture Size: 3.5 mm                                                 
 * Scrambler: Out                                                        
 * Depolarizer: Out                                                      

 Source Ang: 30.00   Detect Ang:  0.00  Volt: 0.777
 Date:  3-OCT-00   Time: 15:52:13
