   224
    320.0   0.09999   0.06213
    330.0   0.10792   0.03546
    340.0   0.11365   0.02221
    350.0   0.12355   0.01446
    360.0   0.13427   0.00979
    370.0   0.14768   0.00747
    380.0   0.15988   0.00681
    390.0   0.17026   0.00662
    400.0   0.18239   0.00583
    410.0   0.19032   0.00540
    420.0   0.19718   0.00580
    430.0   0.20228   0.00569
    440.0   0.20694   0.00583
    450.0   0.20795   0.00561
    460.0   0.21150   0.00590
    470.0   0.21511   0.00586
    480.0   0.21909   0.00586
    490.0   0.22182   0.00631
    500.0   0.22454   0.00635
    510.0   0.22915   0.00635
    520.0   0.23239   0.00647
    530.0   0.23486   0.00634
    540.0   0.23818   0.00682
    550.0   0.24154   0.00691
    560.0   0.24376   0.00666
    570.0   0.24686   0.00681
    580.0   0.24932   0.00707
    590.0   0.25184   0.00701
    600.0   0.25348   0.00683
    610.0   0.25597   0.00691
    620.0   0.25824   0.00705
    630.0   0.26054   0.00712
    640.0   0.26219   0.00733
    650.0   0.26491   0.00739
    660.0   0.26686   0.00739
    670.0   0.26881   0.00757
    680.0   0.27066   0.00759
    690.0   0.27296   0.00764
    700.0   0.27458   0.00779
    710.0   0.27638   0.00776
    720.0   0.27698   0.00781
    730.0   0.27758   0.00788
    740.0   0.27809   0.00768
    750.0   0.27867   0.00776
    760.0   0.27814   0.00789
    770.0   0.27896   0.00778
    780.0   0.27860   0.00749
    790.0   0.27794   0.00779
    800.0   0.27787   0.01263
    810.0   0.27623   0.01237
    820.0   0.27464   0.01316
    830.0   0.27322   0.01314
    840.0   0.27235   0.01269
    850.0   0.27127   0.01131
    860.0   0.27044   0.01561
    870.0   0.27047   0.01299
    880.0   0.26848   0.01047
    890.0   0.26654   0.01069
    900.0   0.26438   0.01000
    910.0   0.26239   0.00884
    920.0   0.26046   0.00736
    930.0   0.25882   0.00723
    940.0   0.25782   0.00711
    950.0   0.25553   0.00763
    960.0   0.25390   0.00714
    970.0   0.25251   0.00772
    980.0   0.25093   0.00549
    990.0   0.24895   0.00594
   1000.0   0.24705   0.00611
   1010.0   0.24583   0.00696
   1020.0   0.24421   0.00745
   1030.0   0.24304   0.00683
   1040.0   0.24251   0.00638
   1050.0   0.24159   0.00748
   1060.0   0.24034   0.00615
   1070.0   0.24041   0.00596
   1080.0   0.24045   0.00607
   1090.0   0.24024   0.00668
   1100.0   0.24163   0.00559
   1110.0   0.24254   0.00638
   1120.0   0.24230   0.00625
   1130.0   0.24277   0.00605
   1140.0   0.24424   0.00548
   1150.0   0.24637   0.00604
   1160.0   0.24723   0.00629
   1170.0   0.24888   0.00722
   1180.0   0.24884   0.00614
   1190.0   0.24930   0.00616
   1200.0   0.25215   0.00624
   1210.0   0.25288   0.00585
   1220.0   0.25341   0.00676
   1230.0   0.25555   0.00716
   1240.0   0.25503   0.00579
   1250.0   0.25712   0.00643
   1260.0   0.25923   0.00682
   1270.0   0.25966   0.00628
   1280.0   0.26235   0.00657
   1290.0   0.26224   0.00588
   1300.0   0.26391   0.00600
   1310.0   0.26581   0.00634
   1320.0   0.26679   0.00617
   1330.0   0.26790   0.00655
   1340.0   0.26918   0.00685
   1350.0   0.27098   0.00696
   1360.0   0.27239   0.00677
   1370.0   0.27445   0.00661
   1380.0   0.27659   0.00635
   1390.0   0.27902   0.00798
   1400.0   0.28058   0.00747
   1410.0   0.28303   0.00711
   1420.0   0.28458   0.00718
   1430.0   0.28711   0.00579
   1440.0   0.28810   0.00785
   1450.0   0.29234   0.00691
   1460.0   0.29404   0.00753
   1470.0   0.29656   0.00776
   1480.0   0.29972   0.00788
   1490.0   0.30149   0.00832
   1500.0   0.30461   0.00689
   1510.0   0.30451   0.00801
   1520.0   0.30779   0.00870
   1530.0   0.31102   0.00745
   1540.0   0.31302   0.00883
   1550.0   0.31600   0.00857
   1560.0   0.31711   0.00680
   1570.0   0.32055   0.00852
   1580.0   0.32363   0.00820
   1590.0   0.32531   0.00879
   1600.0   0.32733   0.00871
   1610.0   0.32837   0.00954
   1620.0   0.33089   0.00885
   1630.0   0.33194   0.00950
   1640.0   0.33590   0.00872
   1650.0   0.33789   0.00804
   1660.0   0.34121   0.00916
   1670.0   0.34298   0.00877
   1680.0   0.34392   0.00915
   1690.0   0.34621   0.00979
   1700.0   0.34752   0.00796
   1710.0   0.35104   0.00892
   1720.0   0.35267   0.00906
   1730.0   0.35473   0.00975
   1740.0   0.35680   0.00885
   1750.0   0.35685   0.00967
   1760.0   0.35877   0.01000
   1770.0   0.35884   0.00973
   1780.0   0.36147   0.00960
   1790.0   0.36245   0.00995
   1800.0   0.36282   0.01055
   1810.0   0.36486   0.01071
   1820.0   0.36411   0.01035
   1830.0   0.36652   0.01029
   1840.0   0.36731   0.01053
   1850.0   0.36789   0.01000
   1860.0   0.37022   0.01064
   1870.0   0.37127   0.01005
   1880.0   0.37105   0.00965
   1890.0   0.37162   0.01040
   1900.0   0.37352   0.01032
   1910.0   0.37286   0.01110
   1920.0   0.37343   0.01121
   1930.0   0.37515   0.01074
   1940.0   0.37544   0.01028
   1950.0   0.37789   0.01028
   1960.0   0.37664   0.01031
   1970.0   0.37705   0.01053
   1980.0   0.37772   0.01041
   1990.0   0.37640   0.00920
   2000.0   0.37645   0.00928
   2010.0   0.37810   0.01002
   2020.0   0.37743   0.01034
   2030.0   0.37771   0.01068
   2040.0   0.37846   0.01029
   2050.0   0.37836   0.01103
   2060.0   0.37827   0.01086
   2070.0   0.37834   0.01042
   2080.0   0.37882   0.01071
   2090.0   0.37651   0.01103
   2100.0   0.37832   0.01146
   2110.0   0.37711   0.01065
   2120.0   0.37771   0.01104
   2130.0   0.37718   0.01159
   2140.0   0.37868   0.01179
   2150.0   0.37760   0.01137
   2160.0   0.37648   0.01102
   2170.0   0.37771   0.01102
   2180.0   0.37826   0.01060
   2190.0   0.37810   0.00989
   2200.0   0.37824   0.01094
   2210.0   0.37866   0.01083
   2220.0   0.37841   0.01123
   2230.0   0.37972   0.00982
   2240.0   0.37901   0.01077
   2250.0   0.38094   0.01081
   2260.0   0.38206   0.01096
   2270.0   0.38047   0.01143
   2280.0   0.38235   0.01163
   2290.0   0.38078   0.01153
   2300.0   0.38281   0.01093
   2310.0   0.38352   0.01008
   2320.0   0.38337   0.01177
   2330.0   0.38208   0.01122
   2340.0   0.38334   0.01126
   2350.0   0.38237   0.01065
   2360.0   0.38143   0.01125
   2370.0   0.38324   0.01167
   2380.0   0.38351   0.01198
   2390.0   0.38455   0.01222
   2400.0   0.38332   0.01165
   2410.0   0.38508   0.01163
   2420.0   0.38492   0.01325
   2430.0   0.38507   0.01126
   2440.0   0.38692   0.01094
   2450.0   0.38572   0.01135
   2460.0   0.38548   0.01124
   2470.0   0.38419   0.01203
   2480.0   0.38654   0.01081
   2490.0   0.38762   0.01087
   2500.0   0.38687   0.01220
   2510.0   0.38728   0.01117
   2520.0   0.38726   0.01197
   2530.0   0.38683   0.01083
   2540.0   0.38732   0.01157
   2550.0   0.38315   0.01179



 C1TB57      .ASC                        

 TB-TJM-057                                                              
 Sahara 99555 angrite <125 um                                            
 RATIOS ADJUSTED USING NBS HALON CALIBRATION TABLE                       
 * User: THB                                                             
 * Research Type: Cosmochemistry, Active Missions, NEAR,                 
 * NASA PI/CoI or Sponsor: TJM                                           
 * BVC: Visitor                                                          
 * Public Release Date: 10/13/2003                                       
 * Run Mode: All Wavelengths for Each Sample                             
 * Stage Type: Automatic                                                 
 * Spinning: Yes                                                         
 * Aperture Size: 3.5 mm                                                 
 * Scrambler: Out                                                        
 * Depolarizer: Out                                                      
 RATIOS ADJUSTED USING NBS HALON CALIBRATION TABLE                       

 Source Ang: 30.00   Detect Ang:  0.00  Volt: 0.777
 Date: 13-OCT-00   Time: 17:53:45
