   224
    320.0   0.09591   0.05259
    330.0   0.10299   0.03395
    340.0   0.11105   0.02399
    350.0   0.12071   0.01735
    360.0   0.13363   0.01242
    370.0   0.14677   0.00907
    380.0   0.15836   0.00747
    390.0   0.16681   0.00820
    400.0   0.17394   0.00452
    410.0   0.18011   0.00314
    420.0   0.18464   0.00250
    430.0   0.18750   0.00230
    440.0   0.19115   0.00220
    450.0   0.19370   0.00214
    460.0   0.19595   0.00203
    470.0   0.19784   0.00202
    480.0   0.19923   0.00209
    490.0   0.20124   0.00200
    500.0   0.20379   0.00206
    510.0   0.20244   0.00195
    520.0   0.20843   0.00207
    530.0   0.21058   0.00207
    540.0   0.21159   0.00197
    550.0   0.21215   0.00206
    560.0   0.21496   0.00214
    570.0   0.21693   0.00201
    580.0   0.21866   0.00211
    590.0   0.22017   0.00206
    600.0   0.22160   0.00215
    610.0   0.22315   0.00211
    620.0   0.22495   0.00208
    630.0   0.22698   0.00218
    640.0   0.22866   0.00211
    650.0   0.23021   0.00233
    660.0   0.23202   0.00227
    670.0   0.23344   0.00221
    680.0   0.23523   0.00227
    690.0   0.23672   0.00222
    700.0   0.23824   0.00242
    710.0   0.23960   0.00239
    720.0   0.24071   0.00240
    730.0   0.24069   0.00478
    740.0   0.24150   0.00238
    750.0   0.24161   0.00248
    760.0   0.24051   0.00252
    770.0   0.23784   0.00263
    780.0   0.23423   0.00276
    790.0   0.22924   0.00285
    800.0   0.22315   0.00554
    810.0   0.21440   0.00579
    820.0   0.20545   0.00583
    830.0   0.19616   0.00586
    840.0   0.18745   0.00564
    850.0   0.17798   0.00536
    860.0   0.16928   0.00718
    870.0   0.16287   0.00606
    880.0   0.15572   0.00566
    890.0   0.14948   0.00472
    900.0   0.14475   0.00422
    910.0   0.14174   0.00398
    920.0   0.13909   0.00350
    930.0   0.13775   0.00340
    940.0   0.13740   0.00309
    950.0   0.13805   0.00287
    960.0   0.14047   0.00280
    970.0   0.14355   0.00243
    980.0   0.14783   0.00254
    990.0   0.15308   0.00245
   1000.0   0.15945   0.00240
   1010.0   0.16680   0.00272
   1020.0   0.17407   0.00275
   1030.0   0.18213   0.00270
   1040.0   0.19046   0.00281
   1050.0   0.19787   0.00283
   1060.0   0.20526   0.00286
   1070.0   0.21339   0.00274
   1080.0   0.22015   0.00262
   1090.0   0.22675   0.00263
   1100.0   0.23283   0.00278
   1110.0   0.23826   0.00281
   1120.0   0.24309   0.00274
   1130.0   0.24635   0.00272
   1140.0   0.24925   0.00276
   1150.0   0.25177   0.00276
   1160.0   0.25503   0.00278
   1170.0   0.25672   0.00279
   1180.0   0.25778   0.00283
   1190.0   0.25994   0.00287
   1200.0   0.26029   0.00276
   1210.0   0.26190   0.00502
   1220.0   0.26447   0.00316
   1230.0   0.26638   0.00320
   1240.0   0.26813   0.00299
   1250.0   0.26911   0.00292
   1260.0   0.27106   0.00293
   1270.0   0.27211   0.00291
   1280.0   0.27392   0.00280
   1290.0   0.27551   0.00280
   1300.0   0.27696   0.00305
   1310.0   0.27895   0.00302
   1320.0   0.28067   0.00315
   1330.0   0.28225   0.00299
   1340.0   0.28410   0.00290
   1350.0   0.28553   0.00310
   1360.0   0.28726   0.00340
   1370.0   0.28851   0.00352
   1380.0   0.29018   0.00359
   1390.0   0.29120   0.00358
   1400.0   0.29251   0.00360
   1410.0   0.29308   0.00351
   1420.0   0.29461   0.00364
   1430.0   0.29557   0.00366
   1440.0   0.29588   0.00338
   1450.0   0.29642   0.00332
   1460.0   0.29638   0.00334
   1470.0   0.29583   0.00344
   1480.0   0.29568   0.00357
   1490.0   0.29604   0.00351
   1500.0   0.29557   0.00348
   1510.0   0.29414   0.00341
   1520.0   0.29282   0.00335
   1530.0   0.29100   0.00359
   1540.0   0.29000   0.00355
   1550.0   0.28870   0.00365
   1560.0   0.28718   0.00366
   1570.0   0.28501   0.00359
   1580.0   0.28282   0.00356
   1590.0   0.28047   0.00334
   1600.0   0.27922   0.00373
   1610.0   0.27650   0.00354
   1620.0   0.27345   0.00371
   1630.0   0.27102   0.00362
   1640.0   0.26857   0.00361
   1650.0   0.26576   0.00354
   1660.0   0.26331   0.00381
   1670.0   0.25888   0.00650
   1680.0   0.25682   0.00368
   1690.0   0.25398   0.00382
   1700.0   0.25179   0.00322
   1710.0   0.24871   0.00323
   1720.0   0.24565   0.00306
   1730.0   0.24297   0.00304
   1740.0   0.24009   0.00301
   1750.0   0.23719   0.00304
   1760.0   0.23525   0.00244
   1770.0   0.23240   0.00258
   1780.0   0.22995   0.00238
   1790.0   0.22727   0.00234
   1800.0   0.22490   0.00246
   1810.0   0.22312   0.00241
   1820.0   0.22152   0.00248
   1830.0   0.21915   0.00257
   1840.0   0.21652   0.00272
   1850.0   0.21530   0.00252
   1860.0   0.21324   0.00255
   1870.0   0.21181   0.00255
   1880.0   0.21084   0.00251
   1890.0   0.20949   0.00230
   1900.0   0.20802   0.00236
   1910.0   0.20719   0.00227
   1920.0   0.20620   0.00239
   1930.0   0.20472   0.00231
   1940.0   0.20441   0.00240
   1950.0   0.20400   0.00230
   1960.0   0.20336   0.00236
   1970.0   0.20338   0.00229
   1980.0   0.20294   0.00229
   1990.0   0.20314   0.00225
   2000.0   0.20361   0.00228
   2010.0   0.20330   0.00234
   2020.0   0.20426   0.00221
   2030.0   0.20451   0.00229
   2040.0   0.20532   0.00232
   2050.0   0.20611   0.00237
   2060.0   0.20676   0.00238
   2070.0   0.20759   0.00254
   2080.0   0.20858   0.00246
   2090.0   0.20974   0.00259
   2100.0   0.21120   0.00260
   2110.0   0.21233   0.00264
   2120.0   0.21471   0.00260
   2130.0   0.21649   0.00243
   2140.0   0.21754   0.00259
   2150.0   0.21940   0.00268
   2160.0   0.22111   0.00256
   2170.0   0.22245   0.00276
   2180.0   0.22513   0.00267
   2190.0   0.22738   0.00267
   2200.0   0.22932   0.00252
   2210.0   0.23170   0.00250
   2220.0   0.23389   0.00249
   2230.0   0.23616   0.00257
   2240.0   0.23923   0.00263
   2250.0   0.24155   0.00270
   2260.0   0.24436   0.00266
   2270.0   0.24644   0.00273
   2280.0   0.24940   0.00266
   2290.0   0.25128   0.00280
   2300.0   0.25423   0.00278
   2310.0   0.25689   0.00277
   2320.0   0.26017   0.00289
   2330.0   0.26269   0.00282
   2340.0   0.26557   0.00299
   2350.0   0.26824   0.00291
   2360.0   0.27038   0.00304
   2370.0   0.27265   0.00325
   2380.0   0.27586   0.00319
   2390.0   0.27821   0.00301
   2400.0   0.28088   0.00318
   2410.0   0.28429   0.00331
   2420.0   0.28648   0.00354
   2430.0   0.28935   0.00325
   2440.0   0.29078   0.00347
   2450.0   0.29300   0.00330
   2460.0   0.29620   0.00315
   2470.0   0.29852   0.00340
   2480.0   0.30052   0.00324
   2490.0   0.30266   0.00325
   2500.0   0.30538   0.00334
   2510.0   0.30752   0.00360
   2520.0   0.30976   0.00344
   2530.0   0.31431   0.00376
   2540.0   0.31559   0.00378
   2550.0   0.31732   0.00419



 C1TB27      .ASC                        

 TB-RPB-027                                                              
 Macibini eucrite clast 3 <63 um                                         
 * User: THB                                                             
 * Research Type: Astronomy, Student,                                    
 * NASA PI/CoI or Sponsor: RPB                                           
 * BVC: Visitor                                                          
 * Public Release Date: 08/25/2002                                       
 * Run Mode: All Samples at Each Wavelength                              
 * Stage Type: Automatic                                                 
 * Spinning: Yes                                                         
 * Aperture Size: 7.0 mm                                                 
 * Scrambler: In                                                         
 * Depolarizer: Out                                                      
 RATIOS ADJUSTED USING NBS HALON CALIBRATION TABLE                       

 Source Ang: 30.00   Detect Ang:  0.00  Volt: 0.777
 Date: 26-AUG-99   Time: 12:13:54
