   224
    320.0   0.05283   0.00057
    330.0   0.05731   0.00050
    340.0   0.06125   0.00052
    350.0   0.06480   0.00051
    360.0   0.06912   0.00042
    370.0   0.07260   0.00040
    380.0   0.07564   0.00040
    390.0   0.07767   0.00055
    400.0   0.08025   0.00069
    410.0   0.08270   0.00050
    420.0   0.08544   0.00052
    430.0   0.08736   0.00053
    440.0   0.08871   0.00047
    450.0   0.08953   0.00043
    460.0   0.09030   0.00058
    470.0   0.09113   0.00054
    480.0   0.09199   0.00054
    490.0   0.09265   0.00050
    500.0   0.09316   0.00051
    510.0   0.09383   0.00048
    520.0   0.09424   0.00047
    530.0   0.09485   0.00047
    540.0   0.09514   0.00045
    550.0   0.09545   0.00043
    560.0   0.09577   0.00043
    570.0   0.09620   0.00041
    580.0   0.09653   0.00043
    590.0   0.09681   0.00043
    600.0   0.09711   0.00041
    610.0   0.09745   0.00046
    620.0   0.09804   0.00045
    630.0   0.09806   0.00044
    640.0   0.09817   0.00050
    650.0   0.09820   0.00047
    660.0   0.09829   0.00048
    670.0   0.09877   0.00049
    680.0   0.09939   0.00048
    690.0   0.09975   0.00052
    700.0   0.10004   0.00050
    710.0   0.09997   0.00046
    720.0   0.09995   0.00051
    730.0   0.09993   0.00050
    740.0   0.09975   0.00056
    750.0   0.09977   0.00061
    760.0   0.09929   0.00053
    770.0   0.09885   0.00053
    780.0   0.09864   0.00055
    790.0   0.09835   0.00058
    800.0   0.09817   0.00484
    810.0   0.09798   0.00429
    820.0   0.09776   0.00417
    830.0   0.09754   0.00378
    840.0   0.09741   0.00325
    850.0   0.09735   0.00291
    860.0   0.09755   0.00408
    870.0   0.09776   0.00322
    880.0   0.09788   0.00261
    890.0   0.09785   0.00212
    900.0   0.09785   0.00205
    910.0   0.09778   0.00177
    920.0   0.09755   0.00282
    930.0   0.09739   0.00260
    940.0   0.09723   0.00254
    950.0   0.09700   0.00213
    960.0   0.09663   0.00201
    970.0   0.09645   0.00164
    980.0   0.09616   0.00312
    990.0   0.09607   0.00314
   1000.0   0.09586   0.00266
   1010.0   0.09586   0.00247
   1020.0   0.09556   0.00229
   1030.0   0.09544   0.00226
   1040.0   0.09527   0.00211
   1050.0   0.09528   0.00205
   1060.0   0.09504   0.00200
   1070.0   0.09535   0.00198
   1080.0   0.09558   0.00192
   1090.0   0.09594   0.00192
   1100.0   0.09631   0.00174
   1110.0   0.09673   0.00316
   1120.0   0.09710   0.00288
   1130.0   0.09751   0.00279
   1140.0   0.09782   0.00265
   1150.0   0.09839   0.00289
   1160.0   0.09821   0.00253
   1170.0   0.09845   0.00235
   1180.0   0.09897   0.00242
   1190.0   0.09918   0.00219
   1200.0   0.09917   0.00219
   1210.0   0.09936   0.00242
   1220.0   0.09946   0.00230
   1230.0   0.09952   0.00207
   1240.0   0.09997   0.00209
   1250.0   0.10021   0.00188
   1260.0   0.10027   0.00183
   1270.0   0.10053   0.00185
   1280.0   0.10032   0.00171
   1290.0   0.10057   0.00245
   1300.0   0.10104   0.00249
   1310.0   0.10105   0.00257
   1320.0   0.10122   0.00249
   1330.0   0.10126   0.00216
   1340.0   0.10123   0.00215
   1350.0   0.10141   0.00213
   1360.0   0.10198   0.00254
   1370.0   0.10240   0.00232
   1380.0   0.10276   0.00259
   1390.0   0.10318   0.00213
   1400.0   0.10334   0.00227
   1410.0   0.10353   0.00204
   1420.0   0.10362   0.00189
   1430.0   0.10375   0.00170
   1440.0   0.10382   0.00175
   1450.0   0.10405   0.00189
   1460.0   0.10423   0.00167
   1470.0   0.10440   0.00176
   1480.0   0.10459   0.00165
   1490.0   0.10470   0.00177
   1500.0   0.10476   0.00158
   1510.0   0.10479   0.00173
   1520.0   0.10496   0.00167
   1530.0   0.10506   0.00154
   1540.0   0.10523   0.00191
   1550.0   0.10537   0.00158
   1560.0   0.10580   0.00161
   1570.0   0.10575   0.00163
   1580.0   0.10596   0.00156
   1590.0   0.10640   0.00160
   1600.0   0.10605   0.00174
   1610.0   0.10626   0.00163
   1620.0   0.10625   0.00176
   1630.0   0.10618   0.00175
   1640.0   0.10643   0.00169
   1650.0   0.10662   0.00162
   1660.0   0.10679   0.00148
   1670.0   0.10689   0.00161
   1680.0   0.10682   0.00149
   1690.0   0.10685   0.00156
   1700.0   0.10686   0.00163
   1710.0   0.10701   0.00126
   1720.0   0.10704   0.00135
   1730.0   0.10689   0.00130
   1740.0   0.10647   0.00131
   1750.0   0.10622   0.00118
   1760.0   0.10609   0.00129
   1770.0   0.10609   0.00128
   1780.0   0.10601   0.00142
   1790.0   0.10599   0.00142
   1800.0   0.10572   0.00149
   1810.0   0.10562   0.00152
   1820.0   0.10562   0.00165
   1830.0   0.10572   0.00185
   1840.0   0.10565   0.00202
   1850.0   0.10563   0.00177
   1860.0   0.10559   0.00183
   1870.0   0.10529   0.00196
   1880.0   0.10501   0.00162
   1890.0   0.10488   0.00172
   1900.0   0.10473   0.00193
   1910.0   0.10450   0.00166
   1920.0   0.10431   0.00170
   1930.0   0.10427   0.00176
   1940.0   0.10409   0.00148
   1950.0   0.10373   0.00158
   1960.0   0.10358   0.00153
   1970.0   0.10366   0.00167
   1980.0   0.10369   0.00171
   1990.0   0.10338   0.00161
   2000.0   0.10385   0.00158
   2010.0   0.10360   0.00156
   2020.0   0.10390   0.00169
   2030.0   0.10361   0.00168
   2040.0   0.10398   0.00170
   2050.0   0.10342   0.00164
   2060.0   0.10335   0.00162
   2070.0   0.10374   0.00170
   2080.0   0.10357   0.00191
   2090.0   0.10361   0.00170
   2100.0   0.10349   0.00181
   2110.0   0.10314   0.00185
   2120.0   0.10332   0.00175
   2130.0   0.10352   0.00199
   2140.0   0.10425   0.00204
   2150.0   0.10413   0.00201
   2160.0   0.10400   0.00206
   2170.0   0.10427   0.00189
   2180.0   0.10430   0.00206
   2190.0   0.10442   0.00245
   2200.0   0.10464   0.00245
   2210.0   0.10473   0.00258
   2220.0   0.10489   0.00270
   2230.0   0.10506   0.00260
   2240.0   0.10494   0.00263
   2250.0   0.10493   0.00280
   2260.0   0.10508   0.00260
   2270.0   0.10520   0.00259
   2280.0   0.10547   0.00272
   2290.0   0.10569   0.00253
   2300.0   0.10566   0.00270
   2310.0   0.10577   0.00270
   2320.0   0.10545   0.00273
   2330.0   0.10567   0.00266
   2340.0   0.10600   0.00274
   2350.0   0.10588   0.00269
   2360.0   0.10577   0.00271
   2370.0   0.10584   0.00253
   2380.0   0.10590   0.00271
   2390.0   0.10597   0.00262
   2400.0   0.10589   0.00285
   2410.0   0.10598   0.00283
   2420.0   0.10615   0.00300
   2430.0   0.10637   0.00297
   2440.0   0.10650   0.00288
   2450.0   0.10661   0.00281
   2460.0   0.10654   0.00177
   2470.0   0.10643   0.00158
   2480.0   0.10679   0.00175
   2490.0   0.10636   0.00189
   2500.0   0.10673   0.00172
   2510.0   0.10695   0.00196
   2520.0   0.10678   0.00210
   2530.0   0.10643   0.00232
   2540.0   0.10669   0.00240
   2550.0   0.10623   0.00327



 C3MT92E             .ASC                        

 MT-BEC-092-E                                                            
 Allende <75 um                                                          
 (15, 0) / Spectralon (15, 0)                                            
 * User: MEB                                                             
 * Research Type: DDAP, Student,                                         
 * NASA PI/CoI or Sponsor: BEC                                           
 * BVC: Visitor                                                          
 * Public Release Date: 05/15/2010                                       
 * Run Mode: All Scan Ranges for Each Sample                             
 * Stage Type: Automatic                                                 
 * Spinning: Yes                                                         
 * Azimuth Angle: 0.0                                                    
 * Aperture Size: 5.0                                                    
 * Scrambler: In                                                         
 * Depolarizer: Out                                                      
 * Initial Background at Home: 7.587606e-004                             
 RATIOS ADJUSTED USING RELAB SRS-99 REFLECTANCE SPECTRUM (SRS99C.DAT)    

 Source Ang: 15.00   Detect Ang:  0.00  Volt: 0.777
 Date: 20-MAY-09   Time: 12:02:01
